// thickness-independent fraction of light power (for rudimentary optics) between 0 and 1
simple transmission coefficient:
1

// wavelength-independent absorption coefficient 'a' according to I(z)=I0*exp(-a*z) in [1/m]
lambert beer absorption coefficient:
0

// three-column refractive data for TMM calculations with wavelength [nm], n, k (must be tab-separated)
refractive data:
300	1.78949	0.0109
300.66533	1.78864	0.01063
301.33067	1.7878	0.01036
301.996	1.78696	0.0101
302.66133	1.78613	0.00984
303.32666	1.78531	0.00958
303.992	1.78449	0.00933
304.65733	1.78368	0.00908
305.32266	1.78288	0.00884
305.98799	1.78208	0.0086
306.65333	1.78129	0.00836
307.31866	1.78051	0.00813
307.98399	1.77973	0.0079
308.64932	1.77896	0.00768
309.31466	1.7782	0.00746
309.97999	1.77744	0.00724
310.64532	1.77669	0.00702
311.31066	1.77595	0.00681
311.97599	1.77521	0.00661
312.64132	1.77447	0.0064
313.30665	1.77375	0.0062
313.97199	1.77302	0.006
314.63732	1.77231	0.00581
315.30265	1.7716	0.00561
315.96798	1.77089	0.00542
316.63332	1.77019	0.00524
317.29865	1.7695	0.00506
317.96398	1.76881	0.00488
318.62931	1.76813	0.0047
319.29465	1.76745	0.00452
319.95998	1.76678	0.00435
320.62531	1.76611	0.00418
321.29065	1.76545	0.00402
321.95598	1.76479	0.00385
322.62131	1.76414	0.00369
323.28664	1.76349	0.00353
323.95198	1.76285	0.00338
324.61731	1.76222	0.00322
325.28264	1.76158	0.00307
325.94797	1.76096	0.00292
326.61331	1.76034	0.00278
327.27864	1.75972	0.00263
327.94397	1.7591	0.00249
328.6093	1.7585	0.00235
329.27464	1.75789	0.00222
329.93997	1.75729	0.00208
330.6053	1.7567	0.00195
331.27064	1.75611	0.00182
331.93597	1.75552	0.00169
332.6013	1.75494	0.00156
333.26663	1.75436	0.00144
333.93197	1.75379	0.00132
334.5973	1.75322	0.0012
335.26263	1.75266	0.00108
335.92796	1.7521	9.6E-4
336.5933	1.75154	8.5E-4
337.25863	1.75099	7.3E-4
337.92396	1.75044	6.2E-4
338.58929	1.74989	5.1E-4
339.25463	1.74935	4.1E-4
339.91996	1.74882	3E-4
340.58529	1.74828	2E-4
341.25063	1.74776	1E-4
341.91596	1.74723	0
342.58129	1.74671	1E-4
343.24662	1.74619	2E-4
343.91196	1.74568	2.9E-4
344.57729	1.74517	3.9E-4
345.24262	1.74466	4.8E-4
345.90795	1.74416	5.7E-4
346.57329	1.74366	6.6E-4
347.23862	1.74316	7.4E-4
347.90395	1.74267	8.3E-4
348.56928	1.74218	9.2E-4
349.23462	1.7417	0.001
349.89995	1.74121	0.00108
350.56528	1.74073	0.00116
351.23062	1.74026	0.00124
351.89595	1.73979	0.00132
352.56128	1.73932	0.00139
353.22661	1.73885	0.00147
353.89195	1.73839	0.00154
354.55728	1.73793	0.00161
355.22261	1.73747	0.00168
355.88794	1.73702	0.00175
356.55328	1.73657	0.00182
357.21861	1.73612	0.00189
357.88394	1.73568	0.00195
358.54927	1.73524	0.00202
359.21461	1.7348	0.00208
359.87994	1.73436	0.00214
360.54527	1.73393	0.0022
361.21061	1.7335	0.00226
361.87594	1.73308	0.00232
362.54127	1.73265	0.00238
363.2066	1.73223	0.00244
363.87194	1.73181	0.00249
364.53727	1.7314	0.00255
365.2026	1.73098	0.0026
365.86793	1.73057	0.00265
366.53327	1.73017	0.0027
367.1986	1.72976	0.00275
367.86393	1.72936	0.0028
368.52926	1.72896	0.00285
369.1946	1.72857	0.0029
369.85993	1.72817	0.00295
370.52526	1.72778	0.00299
371.1906	1.72739	0.00304
371.85593	1.727	0.00308
372.52126	1.72662	0.00312
373.18659	1.72624	0.00317
373.85193	1.72586	0.00321
374.51726	1.72548	0.00325
375.18259	1.72511	0.00329
375.84792	1.72474	0.00333
376.51326	1.72437	0.00336
377.17859	1.724	0.0034
377.84392	1.72364	0.00344
378.50925	1.72327	0.00347
379.17459	1.72291	0.00351
379.83992	1.72256	0.00354
380.50525	1.7222	0.00358
381.17059	1.72185	0.00361
381.83592	1.72149	0.00364
382.50125	1.72115	0.00367
383.16658	1.7208	0.0037
383.83192	1.72045	0.00373
384.49725	1.72011	0.00376
385.16258	1.71977	0.00379
385.82791	1.71943	0.00382
386.49325	1.7191	0.00384
387.15858	1.71876	0.00387
387.82391	1.71843	0.0039
388.48924	1.7181	0.00392
389.15458	1.71777	0.00395
389.81991	1.71744	0.00397
390.48524	1.71712	0.00399
391.15058	1.7168	0.00402
391.81591	1.71648	0.00404
392.48124	1.71616	0.00406
393.14657	1.71584	0.00408
393.81191	1.71553	0.0041
394.47724	1.71521	0.00412
395.14257	1.7149	0.00414
395.8079	1.7146	0.00416
396.47324	1.71429	0.00418
397.13857	1.71398	0.00419
397.8039	1.71368	0.00421
398.46923	1.71338	0.00423
399.13457	1.71308	0.00424
399.7999	1.71278	0.00426
400.46523	1.71248	0.00427
401.13057	1.71219	0.00429
401.7959	1.7119	0.0043
402.46123	1.7116	0.00432
403.12656	1.71131	0.00433
403.7919	1.71103	0.00434
404.45723	1.71074	0.00435
405.12256	1.71046	0.00437
405.78789	1.71017	0.00438
406.45323	1.70989	0.00439
407.11856	1.70961	0.0044
407.78389	1.70933	0.00441
408.44922	1.70906	0.00442
409.11456	1.70878	0.00443
409.77989	1.70851	0.00444
410.44522	1.70824	0.00445
411.11056	1.70797	0.00445
411.77589	1.7077	0.00446
412.44122	1.70743	0.00447
413.10655	1.70717	0.00447
413.77189	1.7069	0.00448
414.43722	1.70664	0.00449
415.10255	1.70638	0.00449
415.76788	1.70612	0.0045
416.43322	1.70586	0.0045
417.09855	1.7056	0.00451
417.76388	1.70535	0.00451
418.42921	1.70509	0.00452
419.09455	1.70484	0.00452
419.75988	1.70459	0.00452
420.42521	1.70434	0.00453
421.09055	1.70409	0.00453
421.75588	1.70385	0.00453
422.42121	1.7036	0.00453
423.08654	1.70336	0.00454
423.75188	1.70311	0.00454
424.41721	1.70287	0.00454
425.08254	1.70263	0.00454
425.74787	1.70239	0.00454
426.41321	1.70216	0.00454
427.07854	1.70192	0.00454
427.74387	1.70168	0.00454
428.4092	1.70145	0.00454
429.07454	1.70122	0.00454
429.73987	1.70099	0.00454
430.4052	1.70076	0.00454
431.07054	1.70053	0.00454
431.73587	1.7003	0.00453
432.4012	1.70007	0.00453
433.06653	1.69985	0.00453
433.73187	1.69962	0.00453
434.3972	1.6994	0.00452
435.06253	1.69918	0.00452
435.72786	1.69896	0.00452
436.3932	1.69874	0.00451
437.05853	1.69852	0.00451
437.72386	1.69831	0.00451
438.38919	1.69809	0.0045
439.05453	1.69788	0.0045
439.71986	1.69766	0.00449
440.38519	1.69745	0.00449
441.05053	1.69724	0.00448
441.71586	1.69703	0.00448
442.38119	1.69682	0.00447
443.04652	1.69661	0.00447
443.71186	1.6964	0.00446
444.37719	1.6962	0.00445
445.04252	1.69599	0.00445
445.70785	1.69579	0.00444
446.37319	1.69559	0.00444
447.03852	1.69538	0.00443
447.70385	1.69518	0.00442
448.36918	1.69498	0.00441
449.03452	1.69479	0.00441
449.69985	1.69459	0.0044
450.36518	1.69439	0.00439
451.03052	1.6942	0.00438
451.69585	1.694	0.00438
452.36118	1.69381	0.00437
453.02651	1.69362	0.00436
453.69185	1.69342	0.00435
454.35718	1.69323	0.00434
455.02251	1.69304	0.00433
455.68784	1.69286	0.00433
456.35318	1.69267	0.00432
457.01851	1.69248	0.00431
457.68384	1.69229	0.0043
458.34917	1.69211	0.00429
459.01451	1.69193	0.00428
459.67984	1.69174	0.00427
460.34517	1.69156	0.00426
461.01051	1.69138	0.00425
461.67584	1.6912	0.00424
462.34117	1.69102	0.00423
463.0065	1.69084	0.00422
463.67184	1.69066	0.00421
464.33717	1.69049	0.0042
465.0025	1.69031	0.00419
465.66783	1.69013	0.00418
466.33317	1.68996	0.00416
466.9985	1.68979	0.00415
467.66383	1.68961	0.00414
468.32916	1.68944	0.00413
468.9945	1.68927	0.00412
469.65983	1.6891	0.00411
470.32516	1.68893	0.0041
470.9905	1.68876	0.00408
471.65583	1.68859	0.00407
472.32116	1.68843	0.00406
472.98649	1.68826	0.00405
473.65183	1.6881	0.00404
474.31716	1.68793	0.00402
474.98249	1.68777	0.00401
475.64782	1.68761	0.004
476.31316	1.68744	0.00399
476.97849	1.68728	0.00397
477.64382	1.68712	0.00396
478.30915	1.68696	0.00395
478.97449	1.6868	0.00394
479.63982	1.68664	0.00392
480.30515	1.68649	0.00391
480.97049	1.68633	0.0039
481.63582	1.68617	0.00388
482.30115	1.68602	0.00387
482.96648	1.68586	0.00386
483.63182	1.68571	0.00384
484.29715	1.68556	0.00383
484.96248	1.6854	0.00382
485.62781	1.68525	0.0038
486.29315	1.6851	0.00379
486.95848	1.68495	0.00377
487.62381	1.6848	0.00376
488.28914	1.68465	0.00375
488.95448	1.6845	0.00373
489.61981	1.68436	0.00372
490.28514	1.68421	0.0037
490.95048	1.68406	0.00369
491.61581	1.68392	0.00368
492.28114	1.68377	0.00366
492.94647	1.68363	0.00365
493.61181	1.68348	0.00363
494.27714	1.68334	0.00362
494.94247	1.6832	0.0036
495.6078	1.68306	0.00359
496.27314	1.68292	0.00357
496.93847	1.68278	0.00356
497.6038	1.68264	0.00355
498.26913	1.6825	0.00353
498.93447	1.68236	0.00352
499.5998	1.68222	0.0035
500.26513	1.68208	0.00349
500.93047	1.68195	0.00347
501.5958	1.68181	0.00346
502.26113	1.68167	0.00344
502.92646	1.68154	0.00343
503.5918	1.68141	0.00341
504.25713	1.68127	0.00339
504.92246	1.68114	0.00338
505.58779	1.68101	0.00336
506.25313	1.68087	0.00335
506.91846	1.68074	0.00333
507.58379	1.68061	0.00332
508.24912	1.68048	0.0033
508.91446	1.68035	0.00329
509.57979	1.68022	0.00327
510.24512	1.68009	0.00326
510.91046	1.67997	0.00324
511.57579	1.67984	0.00322
512.24112	1.67971	0.00321
512.90645	1.67959	0.00319
513.57179	1.67946	0.00318
514.23712	1.67934	0.00316
514.90245	1.67921	0.00315
515.56778	1.67909	0.00313
516.23312	1.67896	0.00311
516.89845	1.67884	0.0031
517.56378	1.67872	0.00308
518.22911	1.6786	0.00307
518.89445	1.67848	0.00305
519.55978	1.67835	0.00304
520.22511	1.67823	0.00302
520.89045	1.67811	0.003
521.55578	1.678	0.00299
522.22111	1.67788	0.00297
522.88644	1.67776	0.00296
523.55178	1.67764	0.00294
524.21711	1.67752	0.00292
524.88244	1.67741	0.00291
525.54777	1.67729	0.00289
526.21311	1.67717	0.00287
526.87844	1.67706	0.00286
527.54377	1.67694	0.00284
528.2091	1.67683	0.00283
528.87444	1.67672	0.00281
529.53977	1.6766	0.00279
530.2051	1.67649	0.00278
530.87044	1.67638	0.00276
531.53577	1.67626	0.00275
532.2011	1.67615	0.00273
532.86643	1.67604	0.00271
533.53177	1.67593	0.0027
534.1971	1.67582	0.00268
534.86243	1.67571	0.00266
535.52776	1.6756	0.00265
536.1931	1.67549	0.00263
536.85843	1.67539	0.00261
537.52376	1.67528	0.0026
538.18909	1.67517	0.00258
538.85443	1.67506	0.00257
539.51976	1.67496	0.00255
540.18509	1.67485	0.00253
540.85043	1.67475	0.00252
541.51576	1.67464	0.0025
542.18109	1.67454	0.00248
542.84642	1.67443	0.00247
543.51176	1.67433	0.00245
544.17709	1.67422	0.00243
544.84242	1.67412	0.00242
545.50775	1.67402	0.0024
546.17309	1.67392	0.00239
546.83842	1.67381	0.00237
547.50375	1.67371	0.00235
548.16908	1.67361	0.00234
548.83442	1.67351	0.00232
549.49975	1.67341	0.0023
550.16508	1.67331	0.00229
550.83042	1.67321	0.00227
551.49575	1.67311	0.00225
552.16108	1.67301	0.00224
552.82641	1.67291	0.00222
553.49175	1.67282	0.0022
554.15708	1.67272	0.00219
554.82241	1.67262	0.00217
555.48774	1.67253	0.00216
556.15308	1.67243	0.00214
556.81841	1.67233	0.00212
557.48374	1.67224	0.00211
558.14907	1.67214	0.00209
558.81441	1.67205	0.00207
559.47974	1.67195	0.00206
560.14507	1.67186	0.00204
560.81041	1.67177	0.00202
561.47574	1.67167	0.00201
562.14107	1.67158	0.00199
562.8064	1.67149	0.00198
563.47174	1.67139	0.00196
564.13707	1.6713	0.00194
564.8024	1.67121	0.00193
565.46773	1.67112	0.00191
566.13307	1.67103	0.00189
566.7984	1.67094	0.00188
567.46373	1.67085	0.00186
568.12906	1.67076	0.00185
568.7944	1.67067	0.00183
569.45973	1.67058	0.00181
570.12506	1.67049	0.0018
570.7904	1.6704	0.00178
571.45573	1.67032	0.00176
572.12106	1.67023	0.00175
572.78639	1.67014	0.00173
573.45173	1.67005	0.00172
574.11706	1.66997	0.0017
574.78239	1.66988	0.00168
575.44772	1.66979	0.00167
576.11306	1.66971	0.00165
576.77839	1.66962	0.00163
577.44372	1.66954	0.00162
578.10905	1.66945	0.0016
578.77439	1.66937	0.00159
579.43972	1.66928	0.00157
580.10505	1.6692	0.00155
580.77039	1.66912	0.00154
581.43572	1.66903	0.00152
582.10105	1.66895	0.00151
582.76638	1.66887	0.00149
583.43172	1.66879	0.00147
584.09705	1.6687	0.00146
584.76238	1.66862	0.00144
585.42771	1.66854	0.00143
586.09305	1.66846	0.00141
586.75838	1.66838	0.00139
587.42371	1.6683	0.00138
588.08904	1.66822	0.00136
588.75438	1.66814	0.00135
589.41971	1.66806	0.00133
590.08504	1.66798	0.00131
590.75038	1.6679	0.0013
591.41571	1.66782	0.00128
592.08104	1.66775	0.00127
592.74637	1.66767	0.00125
593.41171	1.66759	0.00123
594.07704	1.66751	0.00122
594.74237	1.66743	0.0012
595.4077	1.66736	0.00119
596.07304	1.66728	0.00117
596.73837	1.6672	0.00116
597.4037	1.66713	0.00114
598.06903	1.66705	0.00112
598.73437	1.66698	0.00111
599.3997	1.6669	0.00109
600.06503	1.66683	0.00108
600.73037	1.66675	0.00106
601.3957	1.66668	0.00105
602.06103	1.6666	0.00103
602.72636	1.66653	0.00101
603.3917	1.66646	0.001
604.05703	1.66638	9.8E-4
604.72236	1.66631	9.7E-4
605.38769	1.66624	9.5E-4
606.05303	1.66616	9.4E-4
606.71836	1.66609	9.2E-4
607.38369	1.66602	9.1E-4
608.04902	1.66595	8.9E-4
608.71436	1.66588	8.8E-4
609.37969	1.66581	8.6E-4
610.04502	1.66573	8.4E-4
610.71036	1.66566	8.3E-4
611.37569	1.66559	8.1E-4
612.04102	1.66552	8E-4
612.70635	1.66545	7.8E-4
613.37169	1.66538	7.7E-4
614.03702	1.66531	7.5E-4
614.70235	1.66524	7.4E-4
615.36768	1.66517	7.2E-4
616.03302	1.66511	7.1E-4
616.69835	1.66504	6.9E-4
617.36368	1.66497	6.8E-4
618.02901	1.6649	6.6E-4
618.69435	1.66483	6.5E-4
619.35968	1.66477	6.3E-4
620.02501	1.6647	6.2E-4
620.69035	1.66463	6E-4
621.35568	1.66456	5.9E-4
622.02101	1.6645	5.7E-4
622.68634	1.66443	5.6E-4
623.35168	1.66437	5.4E-4
624.01701	1.6643	5.3E-4
624.68234	1.66423	5.1E-4
625.34767	1.66417	5E-4
626.01301	1.6641	4.8E-4
626.67834	1.66404	4.7E-4
627.34367	1.66397	4.5E-4
628.009	1.66391	4.4E-4
628.67434	1.66384	4.2E-4
629.33967	1.66378	4.1E-4
630.005	1.66372	3.9E-4
630.67034	1.66365	3.8E-4
631.33567	1.66359	3.6E-4
632.001	1.66352	3.5E-4
632.66633	1.66346	3.3E-4
633.33167	1.6634	3.2E-4
633.997	1.66334	3E-4
634.66233	1.66327	2.9E-4
635.32766	1.66321	2.7E-4
635.993	1.66315	2.6E-4
636.65833	1.66309	2.5E-4
637.32366	1.66303	2.3E-4
637.98899	1.66296	2.2E-4
638.65433	1.6629	2E-4
639.31966	1.66284	1.9E-4
639.98499	1.66278	1.7E-4
640.65033	1.66272	1.6E-4
641.31566	1.66266	1.4E-4
641.98099	1.6626	1.3E-4
642.64632	1.66254	1.1E-4
643.31166	1.66248	1E-4
643.97699	1.66242	9E-5
644.64232	1.66236	7E-5
645.30765	1.6623	6E-5
645.97299	1.66224	4E-5
646.63832	1.66219	3E-5
647.30365	1.66213	1E-5
647.96898	1.66207	0
648.63432	1.66201	1E-5
649.29965	1.66195	3E-5
649.96498	1.66189	4E-5
650.63032	1.66184	6E-5
651.29565	1.66178	7E-5
651.96098	1.66172	8E-5
652.62631	1.66166	1E-4
653.29165	1.66161	1.1E-4
653.95698	1.66155	1.3E-4
654.62231	1.66149	1.4E-4
655.28764	1.66144	1.5E-4
655.95298	1.66138	1.7E-4
656.61831	1.66133	1.8E-4
657.28364	1.66127	2E-4
657.94897	1.66122	2.1E-4
658.61431	1.66116	2.2E-4
659.27964	1.6611	2.4E-4
659.94497	1.66105	2.5E-4
660.61031	1.66099	2.7E-4
661.27564	1.66094	2.8E-4
661.94097	1.66089	2.9E-4
662.6063	1.66083	3.1E-4
663.27164	1.66078	3.2E-4
663.93697	1.66072	3.3E-4
664.6023	1.66067	3.5E-4
665.26763	1.66062	3.6E-4
665.93297	1.66056	3.7E-4
666.5983	1.66051	3.9E-4
667.26363	1.66046	4E-4
667.92896	1.6604	4.2E-4
668.5943	1.66035	4.3E-4
669.25963	1.6603	4.4E-4
669.92496	1.66025	4.6E-4
670.5903	1.66019	4.7E-4
671.25563	1.66014	4.8E-4
671.92096	1.66009	5E-4
672.58629	1.66004	5.1E-4
673.25163	1.65999	5.2E-4
673.91696	1.65993	5.4E-4
674.58229	1.65988	5.5E-4
675.24762	1.65983	5.6E-4
675.91296	1.65978	5.8E-4
676.57829	1.65973	5.9E-4
677.24362	1.65968	6E-4
677.90895	1.65963	6.2E-4
678.57429	1.65958	6.3E-4
679.23962	1.65953	6.4E-4
679.90495	1.65948	6.6E-4
680.57029	1.65943	6.7E-4
681.23562	1.65938	6.8E-4
681.90095	1.65933	7E-4
682.56628	1.65928	7.1E-4
683.23162	1.65923	7.2E-4
683.89695	1.65918	7.3E-4
684.56228	1.65913	7.5E-4
685.22761	1.65908	7.6E-4
685.89295	1.65904	7.7E-4
686.55828	1.65899	7.9E-4
687.22361	1.65894	8E-4
687.88894	1.65889	8.1E-4
688.55428	1.65884	8.2E-4
689.21961	1.6588	8.4E-4
689.88494	1.65875	8.5E-4
690.55028	1.6587	8.6E-4
691.21561	1.65865	8.8E-4
691.88094	1.65861	8.9E-4
692.54627	1.65856	9E-4
693.21161	1.65851	9.1E-4
693.87694	1.65846	9.3E-4
694.54227	1.65842	9.4E-4
695.2076	1.65837	9.5E-4
695.87294	1.65832	9.6E-4
696.53827	1.65828	9.8E-4
697.2036	1.65823	9.9E-4
697.86893	1.65819	0.001
698.53427	1.65814	0.00102
699.1996	1.6581	0.00103
699.86493	1.65805	0.00104
700.53027	1.658	0.00105
701.1956	1.65796	0.00107
701.86093	1.65791	0.00108
702.52626	1.65787	0.00109
703.1916	1.65782	0.0011
703.85693	1.65778	0.00111
704.52226	1.65773	0.00113
705.18759	1.65769	0.00114
705.85293	1.65765	0.00115
706.51826	1.6576	0.00116
707.18359	1.65756	0.00118
707.84892	1.65751	0.00119
708.51426	1.65747	0.0012
709.17959	1.65743	0.00121
709.84492	1.65738	0.00122
710.51026	1.65734	0.00124
711.17559	1.6573	0.00125
711.84092	1.65725	0.00126
712.50625	1.65721	0.00127
713.17159	1.65717	0.00129
713.83692	1.65712	0.0013
714.50225	1.65708	0.00131
715.16758	1.65704	0.00132
715.83292	1.657	0.00133
716.49825	1.65695	0.00135
717.16358	1.65691	0.00136
717.82891	1.65687	0.00137
718.49425	1.65683	0.00138
719.15958	1.65679	0.00139
719.82491	1.65675	0.0014
720.49025	1.6567	0.00142
721.15558	1.65666	0.00143
721.82091	1.65662	0.00144
722.48624	1.65658	0.00145
723.15158	1.65654	0.00146
723.81691	1.6565	0.00148
724.48224	1.65646	0.00149
725.14757	1.65642	0.0015
725.81291	1.65638	0.00151
726.47824	1.65634	0.00152
727.14357	1.6563	0.00153
727.8089	1.65626	0.00155
728.47424	1.65622	0.00156
729.13957	1.65618	0.00157
729.8049	1.65614	0.00158
730.47024	1.6561	0.00159
731.13557	1.65606	0.0016
731.8009	1.65602	0.00161
732.46623	1.65598	0.00163
733.13157	1.65594	0.00164
733.7969	1.6559	0.00165
734.46223	1.65586	0.00166
735.12756	1.65582	0.00167
735.7929	1.65578	0.00168
736.45823	1.65574	0.00169
737.12356	1.6557	0.00171
737.78889	1.65567	0.00172
738.45423	1.65563	0.00173
739.11956	1.65559	0.00174
739.78489	1.65555	0.00175
740.45023	1.65551	0.00176
741.11556	1.65548	0.00177
741.78089	1.65544	0.00178
742.44622	1.6554	0.0018
743.11156	1.65536	0.00181
743.77689	1.65533	0.00182
744.44222	1.65529	0.00183
745.10755	1.65525	0.00184
745.77289	1.65521	0.00185
746.43822	1.65518	0.00186
747.10355	1.65514	0.00187
747.76888	1.6551	0.00188
748.43422	1.65507	0.00189
749.09955	1.65503	0.00191
749.76488	1.65499	0.00192
750.43022	1.65496	0.00193
751.09555	1.65492	0.00194
751.76088	1.65488	0.00195
752.42621	1.65485	0.00196
753.09155	1.65481	0.00197
753.75688	1.65478	0.00198
754.42221	1.65474	0.00199
755.08754	1.6547	0.002
755.75288	1.65467	0.00201
756.41821	1.65463	0.00202
757.08354	1.6546	0.00204
757.74887	1.65456	0.00205
758.41421	1.65453	0.00206
759.07954	1.65449	0.00207
759.74487	1.65446	0.00208
760.41021	1.65442	0.00209
761.07554	1.65439	0.0021
761.74087	1.65435	0.00211
762.4062	1.65432	0.00212
763.07154	1.65428	0.00213
763.73687	1.65425	0.00214
764.4022	1.65421	0.00215
765.06753	1.65418	0.00216
765.73287	1.65415	0.00217
766.3982	1.65411	0.00218
767.06353	1.65408	0.00219
767.72886	1.65404	0.0022
768.3942	1.65401	0.00221
769.05953	1.65398	0.00222
769.72486	1.65394	0.00223
770.3902	1.65391	0.00225
771.05553	1.65388	0.00226
771.72086	1.65384	0.00227
772.38619	1.65381	0.00228
773.05153	1.65378	0.00229
773.71686	1.65374	0.0023
774.38219	1.65371	0.00231
775.04752	1.65368	0.00232
775.71286	1.65364	0.00233
776.37819	1.65361	0.00234
777.04352	1.65358	0.00235
777.70885	1.65355	0.00236
778.37419	1.65351	0.00237
779.03952	1.65348	0.00238
779.70485	1.65345	0.00239
780.37019	1.65342	0.0024
781.03552	1.65338	0.00241
781.70085	1.65335	0.00242
782.36618	1.65332	0.00243
783.03152	1.65329	0.00244
783.69685	1.65326	0.00245
784.36218	1.65323	0.00246
785.02751	1.65319	0.00247
785.69285	1.65316	0.00248
786.35818	1.65313	0.00249
787.02351	1.6531	0.0025
787.68884	1.65307	0.00251
788.35418	1.65304	0.00252
789.01951	1.65301	0.00253
789.68484	1.65298	0.00254
790.35018	1.65294	0.00255
791.01551	1.65291	0.00256
791.68084	1.65288	0.00257
792.34617	1.65285	0.00258
793.01151	1.65282	0.00258
793.67684	1.65279	0.00259
794.34217	1.65276	0.0026
795.0075	1.65273	0.00261
795.67284	1.6527	0.00262
796.33817	1.65267	0.00263
797.0035	1.65264	0.00264
797.66883	1.65261	0.00265
798.33417	1.65258	0.00266
798.9995	1.65255	0.00267
799.66483	1.65252	0.00268
800.33017	1.65249	0.00269
800.9955	1.65246	0.0027
801.66083	1.65243	0.00271
802.32616	1.6524	0.00272
802.9915	1.65237	0.00273
803.65683	1.65234	0.00274
804.32216	1.65231	0.00275
804.98749	1.65228	0.00276
805.65283	1.65226	0.00277
806.31816	1.65223	0.00277
806.98349	1.6522	0.00278
807.64882	1.65217	0.00279
808.31416	1.65214	0.0028
808.97949	1.65211	0.00281
809.64482	1.65208	0.00282
810.31016	1.65205	0.00283
810.97549	1.65203	0.00284
811.64082	1.652	0.00285
812.30615	1.65197	0.00286
812.97149	1.65194	0.00287
813.63682	1.65191	0.00288
814.30215	1.65188	0.00289
814.96748	1.65186	0.00289
815.63282	1.65183	0.0029
816.29815	1.6518	0.00291
816.96348	1.65177	0.00292
817.62881	1.65174	0.00293
818.29415	1.65172	0.00294
818.95948	1.65169	0.00295
819.62481	1.65166	0.00296
820.29015	1.65163	0.00297
820.95548	1.65161	0.00298
821.62081	1.65158	0.00298
822.28614	1.65155	0.00299
822.95148	1.65152	0.003
823.61681	1.6515	0.00301
824.28214	1.65147	0.00302
824.94747	1.65144	0.00303
825.61281	1.65142	0.00304
826.27814	1.65139	0.00305
826.94347	1.65136	0.00306
827.6088	1.65134	0.00306
828.27414	1.65131	0.00307
828.93947	1.65128	0.00308
829.6048	1.65126	0.00309
830.27014	1.65123	0.0031
830.93547	1.6512	0.00311
831.6008	1.65118	0.00312
832.26613	1.65115	0.00313
832.93147	1.65112	0.00313
833.5968	1.6511	0.00314
834.26213	1.65107	0.00315
834.92746	1.65105	0.00316
835.5928	1.65102	0.00317
836.25813	1.65099	0.00318
836.92346	1.65097	0.00319
837.58879	1.65094	0.00319
838.25413	1.65092	0.0032
838.91946	1.65089	0.00321
839.58479	1.65087	0.00322
840.25013	1.65084	0.00323
840.91546	1.65082	0.00324
841.58079	1.65079	0.00325
842.24612	1.65076	0.00325
842.91146	1.65074	0.00326
843.57679	1.65071	0.00327
844.24212	1.65069	0.00328
844.90745	1.65066	0.00329
845.57279	1.65064	0.0033
846.23812	1.65061	0.0033
846.90345	1.65059	0.00331
847.56878	1.65056	0.00332
848.23412	1.65054	0.00333
848.89945	1.65052	0.00334
849.56478	1.65049	0.00335
850.23012	1.65047	0.00335
850.89545	1.65044	0.00336
851.56078	1.65042	0.00337
852.22611	1.65039	0.00338
852.89145	1.65037	0.00339
853.55678	1.65034	0.0034
854.22211	1.65032	0.0034
854.88744	1.6503	0.00341
855.55278	1.65027	0.00342
856.21811	1.65025	0.00343
856.88344	1.65022	0.00344
857.54877	1.6502	0.00344
858.21411	1.65018	0.00345
858.87944	1.65015	0.00346
859.54477	1.65013	0.00347
860.21011	1.6501	0.00348
860.87544	1.65008	0.00348
861.54077	1.65006	0.00349
862.2061	1.65003	0.0035
862.87144	1.65001	0.00351
863.53677	1.64999	0.00352
864.2021	1.64996	0.00352
864.86743	1.64994	0.00353
865.53277	1.64992	0.00354
866.1981	1.64989	0.00355
866.86343	1.64987	0.00356
867.52876	1.64985	0.00356
868.1941	1.64983	0.00357
868.85943	1.6498	0.00358
869.52476	1.64978	0.00359
870.1901	1.64976	0.0036
870.85543	1.64973	0.0036
871.52076	1.64971	0.00361
872.18609	1.64969	0.00362
872.85143	1.64967	0.00363
873.51676	1.64964	0.00363
874.18209	1.64962	0.00364
874.84742	1.6496	0.00365
875.51276	1.64958	0.00366
876.17809	1.64955	0.00367
876.84342	1.64953	0.00367
877.50875	1.64951	0.00368
878.17409	1.64949	0.00369
878.83942	1.64946	0.0037
879.50475	1.64944	0.0037
880.17009	1.64942	0.00371
880.83542	1.6494	0.00372
881.50075	1.64938	0.00373
882.16608	1.64936	0.00373
882.83142	1.64933	0.00374
883.49675	1.64931	0.00375
884.16208	1.64929	0.00376
884.82741	1.64927	0.00376
885.49275	1.64925	0.00377
886.15808	1.64922	0.00378
886.82341	1.6492	0.00379
887.48874	1.64918	0.00379
888.15408	1.64916	0.0038
888.81941	1.64914	0.00381
889.48474	1.64912	0.00382
890.15008	1.6491	0.00382
890.81541	1.64908	0.00383
891.48074	1.64905	0.00384
892.14607	1.64903	0.00385
892.81141	1.64901	0.00385
893.47674	1.64899	0.00386
894.14207	1.64897	0.00387
894.8074	1.64895	0.00388
895.47274	1.64893	0.00388
896.13807	1.64891	0.00389
896.8034	1.64889	0.0039
897.46873	1.64887	0.0039
898.13407	1.64885	0.00391
898.7994	1.64882	0.00392
899.46473	1.6488	0.00393
900.13007	1.64878	0.00393
900.7954	1.64876	0.00394
901.46073	1.64874	0.00395
902.12606	1.64872	0.00395
902.7914	1.6487	0.00396
903.45673	1.64868	0.00397
904.12206	1.64866	0.00398
904.78739	1.64864	0.00398
905.45273	1.64862	0.00399
906.11806	1.6486	0.004
906.78339	1.64858	0.004
907.44872	1.64856	0.00401
908.11406	1.64854	0.00402
908.77939	1.64852	0.00403
909.44472	1.6485	0.00403
910.11006	1.64848	0.00404
910.77539	1.64846	0.00405
911.44072	1.64844	0.00405
912.10605	1.64842	0.00406
912.77139	1.6484	0.00407
913.43672	1.64838	0.00407
914.10205	1.64836	0.00408
914.76738	1.64834	0.00409
915.43272	1.64832	0.0041
916.09805	1.6483	0.0041
916.76338	1.64829	0.00411
917.42871	1.64827	0.00412
918.09405	1.64825	0.00412
918.75938	1.64823	0.00413
919.42471	1.64821	0.00414
920.09005	1.64819	0.00414
920.75538	1.64817	0.00415
921.42071	1.64815	0.00416
922.08604	1.64813	0.00416
922.75138	1.64811	0.00417
923.41671	1.64809	0.00418
924.08204	1.64807	0.00418
924.74737	1.64806	0.00419
925.41271	1.64804	0.0042
926.07804	1.64802	0.0042
926.74337	1.648	0.00421
927.4087	1.64798	0.00422
928.07404	1.64796	0.00422
928.73937	1.64794	0.00423
929.4047	1.64793	0.00424
930.07004	1.64791	0.00424
930.73537	1.64789	0.00425
931.4007	1.64787	0.00426
932.06603	1.64785	0.00426
932.73137	1.64783	0.00427
933.3967	1.64781	0.00428
934.06203	1.6478	0.00428
934.72736	1.64778	0.00429
935.3927	1.64776	0.0043
936.05803	1.64774	0.0043
936.72336	1.64772	0.00431
937.38869	1.64771	0.00432
938.05403	1.64769	0.00432
938.71936	1.64767	0.00433
939.38469	1.64765	0.00434
940.05003	1.64763	0.00434
940.71536	1.64762	0.00435
941.38069	1.6476	0.00436
942.04602	1.64758	0.00436
942.71136	1.64756	0.00437
943.37669	1.64754	0.00438
944.04202	1.64753	0.00438
944.70735	1.64751	0.00439
945.37269	1.64749	0.00439
946.03802	1.64747	0.0044
946.70335	1.64746	0.00441
947.36868	1.64744	0.00441
948.03402	1.64742	0.00442
948.69935	1.6474	0.00443
949.36468	1.64739	0.00443
950.03002	1.64737	0.00444
950.69535	1.64735	0.00445
951.36068	1.64733	0.00445
952.02601	1.64732	0.00446
952.69135	1.6473	0.00446
953.35668	1.64728	0.00447
954.02201	1.64727	0.00448
954.68734	1.64725	0.00448
955.35268	1.64723	0.00449
956.01801	1.64721	0.0045
956.68334	1.6472	0.0045
957.34867	1.64718	0.00451
958.01401	1.64716	0.00451
958.67934	1.64715	0.00452
959.34467	1.64713	0.00453
960.01001	1.64711	0.00453
960.67534	1.6471	0.00454
961.34067	1.64708	0.00454
962.006	1.64706	0.00455
962.67134	1.64705	0.00456
963.33667	1.64703	0.00456
964.002	1.64701	0.00457
964.66733	1.647	0.00458
965.33267	1.64698	0.00458
965.998	1.64696	0.00459
966.66333	1.64695	0.00459
967.32866	1.64693	0.0046
967.994	1.64691	0.00461
968.65933	1.6469	0.00461
969.32466	1.64688	0.00462
969.98999	1.64687	0.00462
970.65533	1.64685	0.00463
971.32066	1.64683	0.00464
971.98599	1.64682	0.00464
972.65133	1.6468	0.00465
973.31666	1.64679	0.00465
973.98199	1.64677	0.00466
974.64732	1.64675	0.00467
975.31266	1.64674	0.00467
975.97799	1.64672	0.00468
976.64332	1.64671	0.00468
977.30865	1.64669	0.00469
977.97399	1.64667	0.00469
978.63932	1.64666	0.0047
979.30465	1.64664	0.00471
979.96998	1.64663	0.00471
980.63532	1.64661	0.00472
981.30065	1.64659	0.00472
981.96598	1.64658	0.00473
982.63132	1.64656	0.00474
983.29665	1.64655	0.00474
983.96198	1.64653	0.00475
984.62731	1.64652	0.00475
985.29265	1.6465	0.00476
985.95798	1.64649	0.00476
986.62331	1.64647	0.00477
987.28864	1.64646	0.00478
987.95398	1.64644	0.00478
988.61931	1.64642	0.00479
989.28464	1.64641	0.00479
989.94997	1.64639	0.0048
990.61531	1.64638	0.0048
991.28064	1.64636	0.00481
991.94597	1.64635	0.00482
992.61131	1.64633	0.00482
993.27664	1.64632	0.00483
993.94197	1.6463	0.00483
994.6073	1.64629	0.00484
995.27264	1.64627	0.00484
995.93797	1.64626	0.00485
996.6033	1.64624	0.00485
997.26863	1.64623	0.00486
997.93397	1.64621	0.00487
998.5993	1.6462	0.00487
999.26463	1.64618	0.00488
999.92996	1.64617	0.00488
1000.5953	1.64615	0.00489
1001.26063	1.64614	0.00489
1001.92596	1.64612	0.0049
1002.5913	1.64611	0.0049
1003.25663	1.6461	0.00491
1003.92196	1.64608	0.00492
1004.58729	1.64607	0.00492
1005.25263	1.64605	0.00493
1005.91796	1.64604	0.00493
1006.58329	1.64602	0.00494
1007.24862	1.64601	0.00494
1007.91396	1.64599	0.00495
1008.57929	1.64598	0.00495
1009.24462	1.64596	0.00496
1009.90995	1.64595	0.00496
1010.57529	1.64594	0.00497
1011.24062	1.64592	0.00498
1011.90595	1.64591	0.00498
1012.57129	1.64589	0.00499
1013.23662	1.64588	0.00499
1013.90195	1.64587	0.005
1014.56728	1.64585	0.005
1015.23262	1.64584	0.00501
1015.89795	1.64582	0.00501
1016.56328	1.64581	0.00502
1017.22861	1.64579	0.00502
1017.89395	1.64578	0.00503
1018.55928	1.64577	0.00503
1019.22461	1.64575	0.00504
1019.88994	1.64574	0.00504
1020.55528	1.64572	0.00505
1021.22061	1.64571	0.00506
1021.88594	1.6457	0.00506
1022.55128	1.64568	0.00507
1023.21661	1.64567	0.00507
1023.88194	1.64566	0.00508
1024.54727	1.64564	0.00508
1025.21261	1.64563	0.00509
1025.87794	1.64561	0.00509
1026.54327	1.6456	0.0051
1027.2086	1.64559	0.0051
1027.87394	1.64557	0.00511
1028.53927	1.64556	0.00511
1029.2046	1.64555	0.00512
1029.86993	1.64553	0.00512
1030.53527	1.64552	0.00513
1031.2006	1.64551	0.00513
1031.86593	1.64549	0.00514
1032.53127	1.64548	0.00514
1033.1966	1.64547	0.00515
1033.86193	1.64545	0.00515
1034.52726	1.64544	0.00516
1035.1926	1.64543	0.00516
1035.85793	1.64541	0.00517
1036.52326	1.6454	0.00517
1037.18859	1.64539	0.00518
1037.85393	1.64537	0.00518
1038.51926	1.64536	0.00519
1039.18459	1.64535	0.00519
1039.84992	1.64533	0.0052
1040.51526	1.64532	0.0052
1041.18059	1.64531	0.00521
1041.84592	1.6453	0.00521
1042.51126	1.64528	0.00522
1043.17659	1.64527	0.00522
1043.84192	1.64526	0.00523
1044.50725	1.64524	0.00523
1045.17259	1.64523	0.00524
1045.83792	1.64522	0.00524
1046.50325	1.6452	0.00525
1047.16858	1.64519	0.00525
1047.83392	1.64518	0.00526
1048.49925	1.64517	0.00526
1049.16458	1.64515	0.00527
1049.82991	1.64514	0.00527
1050.49525	1.64513	0.00528
1051.16058	1.64512	0.00528
1051.82591	1.6451	0.00529
1052.49125	1.64509	0.00529
1053.15658	1.64508	0.0053
1053.82191	1.64506	0.0053
1054.48724	1.64505	0.00531
1055.15258	1.64504	0.00531
1055.81791	1.64503	0.00532
1056.48324	1.64501	0.00532
1057.14857	1.645	0.00533
1057.81391	1.64499	0.00533
1058.47924	1.64498	0.00534
1059.14457	1.64497	0.00534
1059.8099	1.64495	0.00535
1060.47524	1.64494	0.00535
1061.14057	1.64493	0.00535
1061.8059	1.64492	0.00536
1062.47124	1.6449	0.00536
1063.13657	1.64489	0.00537
1063.8019	1.64488	0.00537
1064.46723	1.64487	0.00538
1065.13257	1.64485	0.00538
1065.7979	1.64484	0.00539
1066.46323	1.64483	0.00539
1067.12856	1.64482	0.0054
1067.7939	1.64481	0.0054
1068.45923	1.64479	0.00541
1069.12456	1.64478	0.00541
1069.78989	1.64477	0.00542
1070.45523	1.64476	0.00542
1071.12056	1.64475	0.00543
1071.78589	1.64473	0.00543
1072.45123	1.64472	0.00543
1073.11656	1.64471	0.00544
1073.78189	1.6447	0.00544
1074.44722	1.64469	0.00545
1075.11256	1.64468	0.00545
1075.77789	1.64466	0.00546
1076.44322	1.64465	0.00546
1077.10855	1.64464	0.00547
1077.77389	1.64463	0.00547
1078.43922	1.64462	0.00548
1079.10455	1.6446	0.00548
1079.76988	1.64459	0.00548
1080.43522	1.64458	0.00549
1081.10055	1.64457	0.00549
1081.76588	1.64456	0.0055
1082.43122	1.64455	0.0055
1083.09655	1.64454	0.00551
1083.76188	1.64452	0.00551
1084.42721	1.64451	0.00552
1085.09255	1.6445	0.00552
1085.75788	1.64449	0.00553
1086.42321	1.64448	0.00553
1087.08854	1.64447	0.00553
1087.75388	1.64446	0.00554
1088.41921	1.64444	0.00554
1089.08454	1.64443	0.00555
1089.74987	1.64442	0.00555
1090.41521	1.64441	0.00556
1091.08054	1.6444	0.00556
1091.74587	1.64439	0.00557
1092.41121	1.64438	0.00557
1093.07654	1.64436	0.00557
1093.74187	1.64435	0.00558
1094.4072	1.64434	0.00558
1095.07254	1.64433	0.00559
1095.73787	1.64432	0.00559
1096.4032	1.64431	0.0056
1097.06853	1.6443	0.0056
1097.73387	1.64429	0.0056
1098.3992	1.64428	0.00561
1099.06453	1.64426	0.00561
1099.72986	1.64425	0.00562
1100.3952	1.64424	0.00562
1101.06053	1.64423	0.00563
1101.72586	1.64422	0.00563
1102.3912	1.64421	0.00563
1103.05653	1.6442	0.00564
1103.72186	1.64419	0.00564
1104.38719	1.64418	0.00565
1105.05253	1.64417	0.00565
1105.71786	1.64416	0.00566
1106.38319	1.64414	0.00566
1107.04852	1.64413	0.00566
1107.71386	1.64412	0.00567
1108.37919	1.64411	0.00567
1109.04452	1.6441	0.00568
1109.70985	1.64409	0.00568
1110.37519	1.64408	0.00569
1111.04052	1.64407	0.00569
1111.70585	1.64406	0.00569
1112.37119	1.64405	0.0057
1113.03652	1.64404	0.0057
1113.70185	1.64403	0.00571
1114.36718	1.64402	0.00571
1115.03252	1.64401	0.00571
1115.69785	1.644	0.00572
1116.36318	1.64398	0.00572
1117.02851	1.64397	0.00573
1117.69385	1.64396	0.00573
1118.35918	1.64395	0.00574
1119.02451	1.64394	0.00574
1119.68984	1.64393	0.00574
1120.35518	1.64392	0.00575
1121.02051	1.64391	0.00575
1121.68584	1.6439	0.00576
1122.35118	1.64389	0.00576
1123.01651	1.64388	0.00576
1123.68184	1.64387	0.00577
1124.34717	1.64386	0.00577
1125.01251	1.64385	0.00578
1125.67784	1.64384	0.00578
1126.34317	1.64383	0.00578
1127.0085	1.64382	0.00579
1127.67384	1.64381	0.00579
1128.33917	1.6438	0.0058
1129.0045	1.64379	0.0058
1129.66983	1.64378	0.0058
1130.33517	1.64377	0.00581
1131.0005	1.64376	0.00581
1131.66583	1.64375	0.00582
1132.33117	1.64374	0.00582
1132.9965	1.64373	0.00582
1133.66183	1.64372	0.00583
1134.32716	1.64371	0.00583
1134.9925	1.6437	0.00584
1135.65783	1.64369	0.00584
1136.32316	1.64368	0.00584
1136.98849	1.64367	0.00585
1137.65383	1.64366	0.00585
1138.31916	1.64365	0.00586
1138.98449	1.64364	0.00586
1139.64982	1.64363	0.00586
1140.31516	1.64362	0.00587
1140.98049	1.64361	0.00587
1141.64582	1.6436	0.00588
1142.31116	1.64359	0.00588
1142.97649	1.64358	0.00588
1143.64182	1.64357	0.00589
1144.30715	1.64356	0.00589
1144.97249	1.64355	0.0059
1145.63782	1.64354	0.0059
1146.30315	1.64353	0.0059
1146.96848	1.64352	0.00591
1147.63382	1.64351	0.00591
1148.29915	1.6435	0.00592
1148.96448	1.64349	0.00592
1149.62981	1.64348	0.00592
1150.29515	1.64347	0.00593
1150.96048	1.64346	0.00593
1151.62581	1.64345	0.00593
1152.29115	1.64344	0.00594
1152.95648	1.64343	0.00594
1153.62181	1.64343	0.00595
1154.28714	1.64342	0.00595
1154.95248	1.64341	0.00595
1155.61781	1.6434	0.00596
1156.28314	1.64339	0.00596
1156.94847	1.64338	0.00596
1157.61381	1.64337	0.00597
1158.27914	1.64336	0.00597
1158.94447	1.64335	0.00598
1159.6098	1.64334	0.00598
1160.27514	1.64333	0.00598
1160.94047	1.64332	0.00599
1161.6058	1.64331	0.00599
1162.27114	1.6433	0.00599
1162.93647	1.64329	0.006
1163.6018	1.64328	0.006
1164.26713	1.64328	0.00601
1164.93247	1.64327	0.00601
1165.5978	1.64326	0.00601
1166.26313	1.64325	0.00602
1166.92846	1.64324	0.00602
1167.5938	1.64323	0.00602
1168.25913	1.64322	0.00603
1168.92446	1.64321	0.00603
1169.58979	1.6432	0.00604
1170.25513	1.64319	0.00604
1170.92046	1.64318	0.00604
1171.58579	1.64317	0.00605
1172.25113	1.64317	0.00605
1172.91646	1.64316	0.00605
1173.58179	1.64315	0.00606
1174.24712	1.64314	0.00606
1174.91246	1.64313	0.00606
1175.57779	1.64312	0.00607
1176.24312	1.64311	0.00607
1176.90845	1.6431	0.00608
1177.57379	1.64309	0.00608
1178.23912	1.64308	0.00608
1178.90445	1.64308	0.00609
1179.56978	1.64307	0.00609
1180.23512	1.64306	0.00609
1180.90045	1.64305	0.0061
1181.56578	1.64304	0.0061
1182.23112	1.64303	0.0061
1182.89645	1.64302	0.00611
1183.56178	1.64301	0.00611
1184.22711	1.64301	0.00611
1184.89245	1.643	0.00612
1185.55778	1.64299	0.00612
1186.22311	1.64298	0.00613
1186.88844	1.64297	0.00613
1187.55378	1.64296	0.00613
1188.21911	1.64295	0.00614
1188.88444	1.64294	0.00614
1189.54977	1.64294	0.00614
1190.21511	1.64293	0.00615
1190.88044	1.64292	0.00615
1191.54577	1.64291	0.00615
1192.21111	1.6429	0.00616
1192.87644	1.64289	0.00616
1193.54177	1.64288	0.00616
1194.2071	1.64288	0.00617
1194.87244	1.64287	0.00617
1195.53777	1.64286	0.00617
1196.2031	1.64285	0.00618
1196.86843	1.64284	0.00618
1197.53377	1.64283	0.00618
1198.1991	1.64282	0.00619
1198.86443	1.64282	0.00619
1199.52976	1.64281	0.00619
1200.1951	1.6428	0.0062
1200.86043	1.64279	0.0062
1201.52576	1.64278	0.0062
1202.1911	1.64277	0.00621
1202.85643	1.64277	0.00621
1203.52176	1.64276	0.00622
1204.18709	1.64275	0.00622
1204.85243	1.64274	0.00622
1205.51776	1.64273	0.00623
1206.18309	1.64272	0.00623
1206.84842	1.64272	0.00623
1207.51376	1.64271	0.00624
1208.17909	1.6427	0.00624
1208.84442	1.64269	0.00624
1209.50975	1.64268	0.00625
1210.17509	1.64267	0.00625
1210.84042	1.64267	0.00625
1211.50575	1.64266	0.00626
1212.17109	1.64265	0.00626
1212.83642	1.64264	0.00626
1213.50175	1.64263	0.00627
1214.16708	1.64263	0.00627
1214.83242	1.64262	0.00627
1215.49775	1.64261	0.00628
1216.16308	1.6426	0.00628
1216.82841	1.64259	0.00628
1217.49375	1.64259	0.00629
1218.15908	1.64258	0.00629
1218.82441	1.64257	0.00629
1219.48974	1.64256	0.00629
1220.15508	1.64255	0.0063
1220.82041	1.64255	0.0063
1221.48574	1.64254	0.0063
1222.15108	1.64253	0.00631
1222.81641	1.64252	0.00631
1223.48174	1.64251	0.00631
1224.14707	1.64251	0.00632
1224.81241	1.6425	0.00632
1225.47774	1.64249	0.00632
1226.14307	1.64248	0.00633
1226.8084	1.64247	0.00633
1227.47374	1.64247	0.00633
1228.13907	1.64246	0.00634
1228.8044	1.64245	0.00634
1229.46973	1.64244	0.00634
1230.13507	1.64244	0.00635
1230.8004	1.64243	0.00635
1231.46573	1.64242	0.00635
1232.13107	1.64241	0.00636
1232.7964	1.6424	0.00636
1233.46173	1.6424	0.00636
1234.12706	1.64239	0.00637
1234.7924	1.64238	0.00637
1235.45773	1.64237	0.00637
1236.12306	1.64237	0.00638
1236.78839	1.64236	0.00638
1237.45373	1.64235	0.00638
1238.11906	1.64234	0.00638
1238.78439	1.64233	0.00639
1239.44972	1.64233	0.00639
1240.11506	1.64232	0.00639
1240.78039	1.64231	0.0064
1241.44572	1.6423	0.0064
1242.11106	1.6423	0.0064
1242.77639	1.64229	0.00641
1243.44172	1.64228	0.00641
1244.10705	1.64227	0.00641
1244.77239	1.64227	0.00642
1245.43772	1.64226	0.00642
1246.10305	1.64225	0.00642
1246.76838	1.64224	0.00643
1247.43372	1.64224	0.00643
1248.09905	1.64223	0.00643
1248.76438	1.64222	0.00643
1249.42971	1.64221	0.00644
1250.09505	1.64221	0.00644
1250.76038	1.6422	0.00644
1251.42571	1.64219	0.00645
1252.09105	1.64218	0.00645
1252.75638	1.64218	0.00645
1253.42171	1.64217	0.00646
1254.08704	1.64216	0.00646
1254.75238	1.64216	0.00646
1255.41771	1.64215	0.00646
1256.08304	1.64214	0.00647
1256.74837	1.64213	0.00647
1257.41371	1.64213	0.00647
1258.07904	1.64212	0.00648
1258.74437	1.64211	0.00648
1259.4097	1.6421	0.00648
1260.07504	1.6421	0.00649
1260.74037	1.64209	0.00649
1261.4057	1.64208	0.00649
1262.07104	1.64208	0.00649
1262.73637	1.64207	0.0065
1263.4017	1.64206	0.0065
1264.06703	1.64205	0.0065
1264.73237	1.64205	0.00651
1265.3977	1.64204	0.00651
1266.06303	1.64203	0.00651
1266.72836	1.64203	0.00652
1267.3937	1.64202	0.00652
1268.05903	1.64201	0.00652
1268.72436	1.642	0.00652
1269.38969	1.642	0.00653
1270.05503	1.64199	0.00653
1270.72036	1.64198	0.00653
1271.38569	1.64198	0.00654
1272.05103	1.64197	0.00654
1272.71636	1.64196	0.00654
1273.38169	1.64195	0.00654
1274.04702	1.64195	0.00655
1274.71236	1.64194	0.00655
1275.37769	1.64193	0.00655
1276.04302	1.64193	0.00656
1276.70835	1.64192	0.00656
1277.37369	1.64191	0.00656
1278.03902	1.64191	0.00656
1278.70435	1.6419	0.00657
1279.36968	1.64189	0.00657
1280.03502	1.64188	0.00657
1280.70035	1.64188	0.00658
1281.36568	1.64187	0.00658
1282.03102	1.64186	0.00658
1282.69635	1.64186	0.00658
1283.36168	1.64185	0.00659
1284.02701	1.64184	0.00659
1284.69235	1.64184	0.00659
1285.35768	1.64183	0.0066
1286.02301	1.64182	0.0066
1286.68834	1.64182	0.0066
1287.35368	1.64181	0.0066
1288.01901	1.6418	0.00661
1288.68434	1.6418	0.00661
1289.34967	1.64179	0.00661
1290.01501	1.64178	0.00662
1290.68034	1.64178	0.00662
1291.34567	1.64177	0.00662
1292.01101	1.64176	0.00662
1292.67634	1.64176	0.00663
1293.34167	1.64175	0.00663
1294.007	1.64174	0.00663
1294.67234	1.64174	0.00664
1295.33767	1.64173	0.00664
1296.003	1.64172	0.00664
1296.66833	1.64172	0.00664
1297.33367	1.64171	0.00665
1297.999	1.6417	0.00665
1298.66433	1.6417	0.00665
1299.32966	1.64169	0.00665
1299.995	1.64168	0.00666
1300.66033	1.64168	0.00666
1301.32566	1.64167	0.00666
1301.991	1.64166	0.00667
1302.65633	1.64166	0.00667
1303.32166	1.64165	0.00667
1303.98699	1.64164	0.00667
1304.65233	1.64164	0.00668
1305.31766	1.64163	0.00668
1305.98299	1.64162	0.00668
1306.64832	1.64162	0.00668
1307.31366	1.64161	0.00669
1307.97899	1.6416	0.00669
1308.64432	1.6416	0.00669
1309.30965	1.64159	0.0067
1309.97499	1.64159	0.0067
1310.64032	1.64158	0.0067
1311.30565	1.64157	0.0067
1311.97099	1.64157	0.00671
1312.63632	1.64156	0.00671
1313.30165	1.64155	0.00671
1313.96698	1.64155	0.00671
1314.63232	1.64154	0.00672
1315.29765	1.64153	0.00672
1315.96298	1.64153	0.00672
1316.62831	1.64152	0.00672
1317.29365	1.64151	0.00673
1317.95898	1.64151	0.00673
1318.62431	1.6415	0.00673
1319.28964	1.6415	0.00674
1319.95498	1.64149	0.00674
1320.62031	1.64148	0.00674
1321.28564	1.64148	0.00674
1321.95098	1.64147	0.00675
1322.61631	1.64146	0.00675
1323.28164	1.64146	0.00675
1323.94697	1.64145	0.00675
1324.61231	1.64145	0.00676
1325.27764	1.64144	0.00676
1325.94297	1.64143	0.00676
1326.6083	1.64143	0.00676
1327.27364	1.64142	0.00677
1327.93897	1.64142	0.00677
1328.6043	1.64141	0.00677
1329.26963	1.6414	0.00677
1329.93497	1.6414	0.00678
1330.6003	1.64139	0.00678
1331.26563	1.64138	0.00678
1331.93097	1.64138	0.00678
1332.5963	1.64137	0.00679
1333.26163	1.64137	0.00679
1333.92696	1.64136	0.00679
1334.5923	1.64135	0.0068
1335.25763	1.64135	0.0068
1335.92296	1.64134	0.0068
1336.58829	1.64134	0.0068
1337.25363	1.64133	0.00681
1337.91896	1.64132	0.00681
1338.58429	1.64132	0.00681
1339.24962	1.64131	0.00681
1339.91496	1.64131	0.00682
1340.58029	1.6413	0.00682
1341.24562	1.64129	0.00682
1341.91096	1.64129	0.00682
1342.57629	1.64128	0.00683
1343.24162	1.64128	0.00683
1343.90695	1.64127	0.00683
1344.57229	1.64126	0.00683
1345.23762	1.64126	0.00684
1345.90295	1.64125	0.00684
1346.56828	1.64125	0.00684
1347.23362	1.64124	0.00684
1347.89895	1.64123	0.00685
1348.56428	1.64123	0.00685
1349.22961	1.64122	0.00685
1349.89495	1.64122	0.00685
1350.56028	1.64121	0.00686
1351.22561	1.6412	0.00686
1351.89095	1.6412	0.00686
1352.55628	1.64119	0.00686
1353.22161	1.64119	0.00687
1353.88694	1.64118	0.00687
1354.55228	1.64118	0.00687
1355.21761	1.64117	0.00687
1355.88294	1.64116	0.00688
1356.54827	1.64116	0.00688
1357.21361	1.64115	0.00688
1357.87894	1.64115	0.00688
1358.54427	1.64114	0.00688
1359.2096	1.64114	0.00689
1359.87494	1.64113	0.00689
1360.54027	1.64112	0.00689
1361.2056	1.64112	0.00689
1361.87094	1.64111	0.0069
1362.53627	1.64111	0.0069
1363.2016	1.6411	0.0069
1363.86693	1.6411	0.0069
1364.53227	1.64109	0.00691
1365.1976	1.64108	0.00691
1365.86293	1.64108	0.00691
1366.52826	1.64107	0.00691
1367.1936	1.64107	0.00692
1367.85893	1.64106	0.00692
1368.52426	1.64106	0.00692
1369.18959	1.64105	0.00692
1369.85493	1.64104	0.00693
1370.52026	1.64104	0.00693
1371.18559	1.64103	0.00693
1371.85093	1.64103	0.00693
1372.51626	1.64102	0.00694
1373.18159	1.64102	0.00694
1373.84692	1.64101	0.00694
1374.51226	1.64101	0.00694
1375.17759	1.641	0.00694
1375.84292	1.64099	0.00695
1376.50825	1.64099	0.00695
1377.17359	1.64098	0.00695
1377.83892	1.64098	0.00695
1378.50425	1.64097	0.00696
1379.16958	1.64097	0.00696
1379.83492	1.64096	0.00696
1380.50025	1.64096	0.00696
1381.16558	1.64095	0.00697
1381.83092	1.64094	0.00697
1382.49625	1.64094	0.00697
1383.16158	1.64093	0.00697
1383.82691	1.64093	0.00697
1384.49225	1.64092	0.00698
1385.15758	1.64092	0.00698
1385.82291	1.64091	0.00698
1386.48824	1.64091	0.00698
1387.15358	1.6409	0.00699
1387.81891	1.6409	0.00699
1388.48424	1.64089	0.00699
1389.14957	1.64089	0.00699
1389.81491	1.64088	0.007
1390.48024	1.64087	0.007
1391.14557	1.64087	0.007
1391.81091	1.64086	0.007
1392.47624	1.64086	0.007
1393.14157	1.64085	0.00701
1393.8069	1.64085	0.00701
1394.47224	1.64084	0.00701
1395.13757	1.64084	0.00701
1395.8029	1.64083	0.00702
1396.46823	1.64083	0.00702
1397.13357	1.64082	0.00702
1397.7989	1.64082	0.00702
1398.46423	1.64081	0.00702
1399.12956	1.64081	0.00703
1399.7949	1.6408	0.00703
1400.46023	1.6408	0.00703
1401.12556	1.64079	0.00703
1401.7909	1.64078	0.00704
1402.45623	1.64078	0.00704
1403.12156	1.64077	0.00704
1403.78689	1.64077	0.00704
1404.45223	1.64076	0.00704
1405.11756	1.64076	0.00705
1405.78289	1.64075	0.00705
1406.44822	1.64075	0.00705
1407.11356	1.64074	0.00705
1407.77889	1.64074	0.00706
1408.44422	1.64073	0.00706
1409.10955	1.64073	0.00706
1409.77489	1.64072	0.00706
1410.44022	1.64072	0.00706
1411.10555	1.64071	0.00707
1411.77089	1.64071	0.00707
1412.43622	1.6407	0.00707
1413.10155	1.6407	0.00707
1413.76688	1.64069	0.00708
1414.43222	1.64069	0.00708
1415.09755	1.64068	0.00708
1415.76288	1.64068	0.00708
1416.42821	1.64067	0.00708
1417.09355	1.64067	0.00709
1417.75888	1.64066	0.00709
1418.42421	1.64066	0.00709
1419.08954	1.64065	0.00709
1419.75488	1.64065	0.00709
1420.42021	1.64064	0.0071
1421.08554	1.64064	0.0071
1421.75088	1.64063	0.0071
1422.41621	1.64063	0.0071
1423.08154	1.64062	0.00711
1423.74687	1.64062	0.00711
1424.41221	1.64061	0.00711
1425.07754	1.64061	0.00711
1425.74287	1.6406	0.00711
1426.4082	1.6406	0.00712
1427.07354	1.64059	0.00712
1427.73887	1.64059	0.00712
1428.4042	1.64058	0.00712
1429.06953	1.64058	0.00712
1429.73487	1.64057	0.00713
1430.4002	1.64057	0.00713
1431.06553	1.64056	0.00713
1431.73087	1.64056	0.00713
1432.3962	1.64055	0.00714
1433.06153	1.64055	0.00714
1433.72686	1.64054	0.00714
1434.3922	1.64054	0.00714
1435.05753	1.64053	0.00714
1435.72286	1.64053	0.00715
1436.38819	1.64052	0.00715
1437.05353	1.64052	0.00715
1437.71886	1.64051	0.00715
1438.38419	1.64051	0.00715
1439.04952	1.6405	0.00716
1439.71486	1.6405	0.00716
1440.38019	1.64049	0.00716
1441.04552	1.64049	0.00716
1441.71086	1.64048	0.00716
1442.37619	1.64048	0.00717
1443.04152	1.64047	0.00717
1443.70685	1.64047	0.00717
1444.37219	1.64047	0.00717
1445.03752	1.64046	0.00717
1445.70285	1.64046	0.00718
1446.36818	1.64045	0.00718
1447.03352	1.64045	0.00718
1447.69885	1.64044	0.00718
1448.36418	1.64044	0.00718
1449.02951	1.64043	0.00719
1449.69485	1.64043	0.00719
1450.36018	1.64042	0.00719
1451.02551	1.64042	0.00719
1451.69085	1.64041	0.00719
1452.35618	1.64041	0.0072
1453.02151	1.6404	0.0072
1453.68684	1.6404	0.0072
1454.35218	1.64039	0.0072
1455.01751	1.64039	0.0072
1455.68284	1.64039	0.00721
1456.34817	1.64038	0.00721
1457.01351	1.64038	0.00721
1457.67884	1.64037	0.00721
1458.34417	1.64037	0.00721
1459.0095	1.64036	0.00722
1459.67484	1.64036	0.00722
1460.34017	1.64035	0.00722
1461.0055	1.64035	0.00722
1461.67084	1.64034	0.00722
1462.33617	1.64034	0.00723
1463.0015	1.64033	0.00723
1463.66683	1.64033	0.00723
1464.33217	1.64033	0.00723
1464.9975	1.64032	0.00723
1465.66283	1.64032	0.00724
1466.32816	1.64031	0.00724
1466.9935	1.64031	0.00724
1467.65883	1.6403	0.00724
1468.32416	1.6403	0.00724
1468.98949	1.64029	0.00725
1469.65483	1.64029	0.00725
1470.32016	1.64028	0.00725
1470.98549	1.64028	0.00725
1471.65083	1.64028	0.00725
1472.31616	1.64027	0.00726
1472.98149	1.64027	0.00726
1473.64682	1.64026	0.00726
1474.31216	1.64026	0.00726
1474.97749	1.64025	0.00726
1475.64282	1.64025	0.00727
1476.30815	1.64024	0.00727
1476.97349	1.64024	0.00727
1477.63882	1.64023	0.00727
1478.30415	1.64023	0.00727
1478.96948	1.64023	0.00728
1479.63482	1.64022	0.00728
1480.30015	1.64022	0.00728
1480.96548	1.64021	0.00728
1481.63082	1.64021	0.00728
1482.29615	1.6402	0.00728
1482.96148	1.6402	0.00729
1483.62681	1.64019	0.00729
1484.29215	1.64019	0.00729
1484.95748	1.64019	0.00729
1485.62281	1.64018	0.00729
1486.28814	1.64018	0.0073
1486.95348	1.64017	0.0073
1487.61881	1.64017	0.0073
1488.28414	1.64016	0.0073
1488.94947	1.64016	0.0073
1489.61481	1.64016	0.00731
1490.28014	1.64015	0.00731
1490.94547	1.64015	0.00731
1491.61081	1.64014	0.00731
1492.27614	1.64014	0.00731
1492.94147	1.64013	0.00731
1493.6068	1.64013	0.00732
1494.27214	1.64013	0.00732
1494.93747	1.64012	0.00732
1495.6028	1.64012	0.00732
1496.26813	1.64011	0.00732
1496.93347	1.64011	0.00733
1497.5988	1.6401	0.00733
1498.26413	1.6401	0.00733
1498.92946	1.6401	0.00733
1499.5948	1.64009	0.00733
1500.26013	1.64009	0.00734
1500.92546	1.64008	0.00734
1501.5908	1.64008	0.00734
1502.25613	1.64007	0.00734
1502.92146	1.64007	0.00734
1503.58679	1.64007	0.00734
1504.25213	1.64006	0.00735
1504.91746	1.64006	0.00735
1505.58279	1.64005	0.00735
1506.24812	1.64005	0.00735
1506.91346	1.64004	0.00735
1507.57879	1.64004	0.00736
1508.24412	1.64004	0.00736
1508.90945	1.64003	0.00736
1509.57479	1.64003	0.00736
1510.24012	1.64002	0.00736
1510.90545	1.64002	0.00736
1511.57079	1.64002	0.00737
1512.23612	1.64001	0.00737
1512.90145	1.64001	0.00737
1513.56678	1.64	0.00737
1514.23212	1.64	0.00737
1514.89745	1.63999	0.00738
1515.56278	1.63999	0.00738
1516.22811	1.63999	0.00738
1516.89345	1.63998	0.00738
1517.55878	1.63998	0.00738
1518.22411	1.63997	0.00738
1518.88944	1.63997	0.00739
1519.55478	1.63997	0.00739
1520.22011	1.63996	0.00739
1520.88544	1.63996	0.00739
1521.55078	1.63995	0.00739
1522.21611	1.63995	0.00739
1522.88144	1.63995	0.0074
1523.54677	1.63994	0.0074
1524.21211	1.63994	0.0074
1524.87744	1.63993	0.0074
1525.54277	1.63993	0.0074
1526.2081	1.63993	0.00741
1526.87344	1.63992	0.00741
1527.53877	1.63992	0.00741
1528.2041	1.63991	0.00741
1528.86943	1.63991	0.00741
1529.53477	1.63991	0.00741
1530.2001	1.6399	0.00742
1530.86543	1.6399	0.00742
1531.53077	1.63989	0.00742
1532.1961	1.63989	0.00742
1532.86143	1.63989	0.00742
1533.52676	1.63988	0.00742
1534.1921	1.63988	0.00743
1534.85743	1.63987	0.00743
1535.52276	1.63987	0.00743
1536.18809	1.63987	0.00743
1536.85343	1.63986	0.00743
1537.51876	1.63986	0.00743
1538.18409	1.63985	0.00744
1538.84942	1.63985	0.00744
1539.51476	1.63985	0.00744
1540.18009	1.63984	0.00744
1540.84542	1.63984	0.00744
1541.51076	1.63983	0.00744
1542.17609	1.63983	0.00745
1542.84142	1.63983	0.00745
1543.50675	1.63982	0.00745
1544.17209	1.63982	0.00745
1544.83742	1.63981	0.00745
1545.50275	1.63981	0.00746
1546.16808	1.63981	0.00746
1546.83342	1.6398	0.00746
1547.49875	1.6398	0.00746
1548.16408	1.6398	0.00746
1548.82941	1.63979	0.00746
1549.49475	1.63979	0.00747
1550.16008	1.63978	0.00747
1550.82541	1.63978	0.00747
1551.49075	1.63978	0.00747
1552.15608	1.63977	0.00747
1552.82141	1.63977	0.00747
1553.48674	1.63976	0.00748
1554.15208	1.63976	0.00748
1554.81741	1.63976	0.00748
1555.48274	1.63975	0.00748
1556.14807	1.63975	0.00748
1556.81341	1.63975	0.00748
1557.47874	1.63974	0.00749
1558.14407	1.63974	0.00749
1558.8094	1.63973	0.00749
1559.47474	1.63973	0.00749
1560.14007	1.63973	0.00749
1560.8054	1.63972	0.00749
1561.47074	1.63972	0.00749
1562.13607	1.63972	0.0075
1562.8014	1.63971	0.0075
1563.46673	1.63971	0.0075
1564.13207	1.6397	0.0075
1564.7974	1.6397	0.0075
1565.46273	1.6397	0.0075
1566.12806	1.63969	0.00751
1566.7934	1.63969	0.00751
1567.45873	1.63969	0.00751
1568.12406	1.63968	0.00751
1568.78939	1.63968	0.00751
1569.45473	1.63967	0.00751
1570.12006	1.63967	0.00752
1570.78539	1.63967	0.00752
1571.45073	1.63966	0.00752
1572.11606	1.63966	0.00752
1572.78139	1.63966	0.00752
1573.44672	1.63965	0.00752
1574.11206	1.63965	0.00753
1574.77739	1.63964	0.00753
1575.44272	1.63964	0.00753
1576.10805	1.63964	0.00753
1576.77339	1.63963	0.00753
1577.43872	1.63963	0.00753
1578.10405	1.63963	0.00754
1578.76938	1.63962	0.00754
1579.43472	1.63962	0.00754
1580.10005	1.63962	0.00754
1580.76538	1.63961	0.00754
1581.43072	1.63961	0.00754
1582.09605	1.6396	0.00754
1582.76138	1.6396	0.00755
1583.42671	1.6396	0.00755
1584.09205	1.63959	0.00755
1584.75738	1.63959	0.00755
1585.42271	1.63959	0.00755
1586.08804	1.63958	0.00755
1586.75338	1.63958	0.00756
1587.41871	1.63958	0.00756
1588.08404	1.63957	0.00756
1588.74937	1.63957	0.00756
1589.41471	1.63957	0.00756
1590.08004	1.63956	0.00756
1590.74537	1.63956	0.00757
1591.41071	1.63955	0.00757
1592.07604	1.63955	0.00757
1592.74137	1.63955	0.00757
1593.4067	1.63954	0.00757
1594.07204	1.63954	0.00757
1594.73737	1.63954	0.00757
1595.4027	1.63953	0.00758
1596.06803	1.63953	0.00758
1596.73337	1.63953	0.00758
1597.3987	1.63952	0.00758
1598.06403	1.63952	0.00758
1598.72936	1.63952	0.00758
1599.3947	1.63951	0.00759
1600.06003	1.63951	0.00759
1600.72536	1.63951	0.00759
1601.3907	1.6395	0.00759
1602.05603	1.6395	0.00759
1602.72136	1.63949	0.00759
1603.38669	1.63949	0.00759
1604.05203	1.63949	0.0076
1604.71736	1.63948	0.0076
1605.38269	1.63948	0.0076
1606.04802	1.63948	0.0076
1606.71336	1.63947	0.0076
1607.37869	1.63947	0.0076
1608.04402	1.63947	0.00761
1608.70935	1.63946	0.00761
1609.37469	1.63946	0.00761
1610.04002	1.63946	0.00761
1610.70535	1.63945	0.00761
1611.37069	1.63945	0.00761
1612.03602	1.63945	0.00761
1612.70135	1.63944	0.00762
1613.36668	1.63944	0.00762
1614.03202	1.63944	0.00762
1614.69735	1.63943	0.00762
1615.36268	1.63943	0.00762
1616.02801	1.63943	0.00762
1616.69335	1.63942	0.00762
1617.35868	1.63942	0.00763
1618.02401	1.63942	0.00763
1618.68934	1.63941	0.00763
1619.35468	1.63941	0.00763
1620.02001	1.63941	0.00763
1620.68534	1.6394	0.00763
1621.35068	1.6394	0.00763
1622.01601	1.6394	0.00764
1622.68134	1.63939	0.00764
1623.34667	1.63939	0.00764
1624.01201	1.63939	0.00764
1624.67734	1.63938	0.00764
1625.34267	1.63938	0.00764
1626.008	1.63938	0.00765
1626.67334	1.63937	0.00765
1627.33867	1.63937	0.00765
1628.004	1.63937	0.00765
1628.66933	1.63936	0.00765
1629.33467	1.63936	0.00765
1630	1.63936	0.00765