// thickness-independent fraction of light power (for rudimentary optics) between 0 and 1
simple transmission coefficient:
1

// wavelength-independent absorption coefficient 'a' according to I(z)=I0*exp(-a*z) in [1/m]
lambert beer absorption coefficient:
0

// three-column refractive data for TMM calculations with wavelength [nm], n, k (must be tab-separated)
refractive data:
300	2.37354	0.3304
300.66533	2.37361	0.3275
301.33067	2.37367	0.3246
301.996	2.3737	0.32171
302.66133	2.37372	0.31882
303.32666	2.37372	0.31594
303.992	2.3737	0.31306
304.65733	2.37366	0.31019
305.32266	2.3736	0.30733
305.98799	2.37353	0.30447
306.65333	2.37344	0.30161
307.31866	2.37333	0.29877
307.98399	2.3732	0.29593
308.64932	2.37305	0.29309
309.31466	2.37289	0.29026
309.97999	2.37271	0.28744
310.64532	2.37251	0.28463
311.31066	2.37229	0.28182
311.97599	2.37206	0.27902
312.64132	2.37181	0.27622
313.30665	2.37154	0.27344
313.97199	2.37125	0.27065
314.63732	2.37094	0.26788
315.30265	2.37062	0.26512
315.96798	2.37028	0.26236
316.63332	2.36992	0.25961
317.29865	2.36955	0.25686
317.96398	2.36916	0.25413
318.62931	2.36875	0.2514
319.29465	2.36832	0.24868
319.95998	2.36788	0.24596
320.62531	2.36742	0.24326
321.29065	2.36694	0.24056
321.95598	2.36644	0.23788
322.62131	2.36593	0.2352
323.28664	2.3654	0.23252
323.95198	2.36485	0.22986
324.61731	2.36429	0.22721
325.28264	2.36371	0.22456
325.94797	2.36311	0.22193
326.61331	2.3625	0.2193
327.27864	2.36187	0.21668
327.94397	2.36122	0.21407
328.6093	2.36056	0.21147
329.27464	2.35988	0.20888
329.93997	2.35918	0.2063
330.6053	2.35847	0.20373
331.27064	2.35774	0.20117
331.93597	2.35699	0.19862
332.6013	2.35623	0.19607
333.26663	2.35545	0.19354
333.93197	2.35465	0.19102
334.5973	2.35384	0.18851
335.26263	2.35302	0.18601
335.92796	2.35217	0.18352
336.5933	2.35131	0.18104
337.25863	2.35044	0.17857
337.92396	2.34954	0.17611
338.58929	2.34864	0.17367
339.25463	2.34771	0.17123
339.91996	2.34678	0.16881
340.58529	2.34582	0.16639
341.25063	2.34485	0.16399
341.91596	2.34386	0.1616
342.58129	2.34286	0.15922
343.24662	2.34185	0.15685
343.91196	2.34081	0.1545
344.57729	2.33977	0.15216
345.24262	2.3387	0.14983
345.90795	2.33763	0.14751
346.57329	2.33653	0.1452
347.23862	2.33543	0.14291
347.90395	2.3343	0.14063
348.56928	2.33317	0.13836
349.23462	2.33201	0.1361
349.89995	2.33085	0.13386
350.56528	2.32966	0.13163
351.23062	2.32847	0.12942
351.89595	2.32726	0.12721
352.56128	2.32603	0.12502
353.22661	2.32479	0.12285
353.89195	2.32354	0.12069
354.55728	2.32227	0.11854
355.22261	2.32099	0.11641
355.88794	2.31969	0.11429
356.55328	2.31838	0.11218
357.21861	2.31705	0.11009
357.88394	2.31572	0.10802
358.54927	2.31436	0.10596
359.21461	2.313	0.10391
359.87994	2.31162	0.10188
360.54527	2.31023	0.09987
361.21061	2.30882	0.09787
361.87594	2.3074	0.09588
362.54127	2.30597	0.09391
363.2066	2.30453	0.09196
363.87194	2.30307	0.09002
364.53727	2.3016	0.0881
365.2026	2.30012	0.0862
365.86793	2.29862	0.08431
366.53327	2.29711	0.08243
367.1986	2.29559	0.08058
367.86393	2.29406	0.07874
368.52926	2.29252	0.07692
369.1946	2.29096	0.07512
369.85993	2.28939	0.07333
370.52526	2.28781	0.07156
371.1906	2.28622	0.06981
371.85593	2.28462	0.06807
372.52126	2.283	0.06636
373.18659	2.28138	0.06466
373.85193	2.27974	0.06298
374.51726	2.2781	0.06132
375.18259	2.27644	0.05967
375.84792	2.27477	0.05805
376.51326	2.27309	0.05644
377.17859	2.2714	0.05486
377.84392	2.2697	0.05329
378.50925	2.26799	0.05174
379.17459	2.26628	0.05022
379.83992	2.26455	0.04871
380.50525	2.26281	0.04722
381.17059	2.26106	0.04575
381.83592	2.25931	0.04431
382.50125	2.25754	0.04288
383.16658	2.25577	0.04147
383.83192	2.25399	0.04009
384.49725	2.2522	0.03872
385.16258	2.2504	0.03738
385.82791	2.2486	0.03606
386.49325	2.24679	0.03476
387.15858	2.24497	0.03348
387.82391	2.24314	0.03223
388.48924	2.24131	0.03099
389.15458	2.23946	0.02978
389.81991	2.23762	0.02859
390.48524	2.23577	0.02743
391.15058	2.23391	0.02628
391.81591	2.23204	0.02516
392.48124	2.23018	0.02407
393.14657	2.2283	0.02299
393.81191	2.22642	0.02194
394.47724	2.22454	0.02092
395.14257	2.22266	0.01992
395.8079	2.22077	0.01894
396.47324	2.21887	0.01799
397.13857	2.21698	0.01706
397.8039	2.21508	0.01616
398.46923	2.21318	0.01528
399.13457	2.21128	0.01443
399.7999	2.20937	0.01361
400.46523	2.20747	0.01281
401.13057	2.20557	0.01203
401.7959	2.20366	0.01129
402.46123	2.20176	0.01057
403.12656	2.19986	0.00987
403.7919	2.19796	0.00921
404.45723	2.19606	0.00857
405.12256	2.19416	0.00795
405.78789	2.19227	0.00737
406.45323	2.19038	0.00681
407.11856	2.18849	0.00628
407.78389	2.18662	0.00578
408.44922	2.18474	0.00531
409.11456	2.18288	0.00487
409.77989	2.18102	0.00446
410.44522	2.17917	0.00407
411.11056	2.17733	0.00372
411.77589	2.1755	0.00339
412.44122	2.17368	0.00309
413.10655	2.17188	0.00283
413.77189	2.17009	0.00259
414.43722	2.16831	0.00239
415.10255	2.16656	0.00222
415.76788	2.16482	0.00208
416.43322	2.1631	0.00196
417.09855	2.16141	0.00189
417.76388	2.15975	0.00184
418.42921	2.15813	0.00182
419.09455	2.15655	0.00183
419.75988	2.15502	0.00184
420.42521	2.15351	0.00185
421.09055	2.15204	0.00186
421.75588	2.1506	0.00187
422.42121	2.14918	0.00188
423.08654	2.14778	0.00189
423.75188	2.1464	0.0019
424.41721	2.14504	0.00191
425.08254	2.1437	0.00192
425.74787	2.14238	0.00193
426.41321	2.14107	0.00194
427.07854	2.13978	0.00195
427.74387	2.1385	0.00196
428.4092	2.13724	0.00197
429.07454	2.136	0.00198
429.73987	2.13476	0.00199
430.4052	2.13354	0.002
431.07054	2.13234	0.00202
431.73587	2.13114	0.00203
432.4012	2.12996	0.00204
433.06653	2.12879	0.00205
433.73187	2.12763	0.00206
434.3972	2.12648	0.00207
435.06253	2.12534	0.00208
435.72786	2.12421	0.00209
436.3932	2.12309	0.0021
437.05853	2.12198	0.00211
437.72386	2.12088	0.00212
438.38919	2.11979	0.00213
439.05453	2.11871	0.00214
439.71986	2.11764	0.00215
440.38519	2.11658	0.00216
441.05053	2.11552	0.00218
441.71586	2.11448	0.00219
442.38119	2.11344	0.0022
443.04652	2.11241	0.00221
443.71186	2.11138	0.00222
444.37719	2.11037	0.00223
445.04252	2.10936	0.00224
445.70785	2.10836	0.00225
446.37319	2.10737	0.00226
447.03852	2.10638	0.00228
447.70385	2.1054	0.00229
448.36918	2.10443	0.0023
449.03452	2.10346	0.00231
449.69985	2.1025	0.00232
450.36518	2.10155	0.00233
451.03052	2.1006	0.00234
451.69585	2.09966	0.00235
452.36118	2.09872	0.00237
453.02651	2.09779	0.00238
453.69185	2.09687	0.00239
454.35718	2.09595	0.0024
455.02251	2.09504	0.00241
455.68784	2.09413	0.00242
456.35318	2.09323	0.00244
457.01851	2.09233	0.00245
457.68384	2.09144	0.00246
458.34917	2.09056	0.00247
459.01451	2.08968	0.00248
459.67984	2.0888	0.00249
460.34517	2.08793	0.00251
461.01051	2.08707	0.00252
461.67584	2.0862	0.00253
462.34117	2.08535	0.00254
463.0065	2.0845	0.00255
463.67184	2.08365	0.00257
464.33717	2.08281	0.00258
465.0025	2.08197	0.00259
465.66783	2.08113	0.0026
466.33317	2.0803	0.00261
466.9985	2.07948	0.00263
467.66383	2.07866	0.00264
468.32916	2.07784	0.00265
468.9945	2.07703	0.00266
469.65983	2.07622	0.00268
470.32516	2.07541	0.00269
470.9905	2.07461	0.0027
471.65583	2.07381	0.00271
472.32116	2.07302	0.00273
472.98649	2.07223	0.00274
473.65183	2.07144	0.00275
474.31716	2.07066	0.00276
474.98249	2.06988	0.00278
475.64782	2.0691	0.00279
476.31316	2.06833	0.0028
476.97849	2.06756	0.00282
477.64382	2.0668	0.00283
478.30915	2.06603	0.00284
478.97449	2.06528	0.00285
479.63982	2.06452	0.00287
480.30515	2.06377	0.00288
480.97049	2.06302	0.00289
481.63582	2.06227	0.00291
482.30115	2.06153	0.00292
482.96648	2.06079	0.00293
483.63182	2.06005	0.00295
484.29715	2.05932	0.00296
484.96248	2.05858	0.00297
485.62781	2.05786	0.00298
486.29315	2.05713	0.003
486.95848	2.05641	0.00301
487.62381	2.05569	0.00302
488.28914	2.05497	0.00304
488.95448	2.05426	0.00305
489.61981	2.05354	0.00307
490.28514	2.05283	0.00308
490.95048	2.05213	0.00309
491.61581	2.05142	0.00311
492.28114	2.05072	0.00312
492.94647	2.05002	0.00313
493.61181	2.04933	0.00315
494.27714	2.04863	0.00316
494.94247	2.04794	0.00318
495.6078	2.04725	0.00319
496.27314	2.04656	0.0032
496.93847	2.04588	0.00322
497.6038	2.0452	0.00323
498.26913	2.04452	0.00324
498.93447	2.04384	0.00326
499.5998	2.04316	0.00327
500.26513	2.04249	0.00329
500.93047	2.04182	0.0033
501.5958	2.04115	0.00332
502.26113	2.04049	0.00333
502.92646	2.03982	0.00334
503.5918	2.03916	0.00336
504.25713	2.0385	0.00337
504.92246	2.03784	0.00339
505.58779	2.03718	0.0034
506.25313	2.03653	0.00342
506.91846	2.03588	0.00343
507.58379	2.03522	0.00345
508.24912	2.03458	0.00346
508.91446	2.03393	0.00348
509.57979	2.03328	0.00349
510.24512	2.03264	0.0035
510.91046	2.032	0.00352
511.57579	2.03136	0.00353
512.24112	2.03072	0.00355
512.90645	2.03009	0.00356
513.57179	2.02945	0.00358
514.23712	2.02882	0.00359
514.90245	2.02819	0.00361
515.56778	2.02756	0.00362
516.23312	2.02694	0.00364
516.89845	2.02631	0.00365
517.56378	2.02569	0.00367
518.22911	2.02506	0.00369
518.89445	2.02444	0.0037
519.55978	2.02382	0.00372
520.22511	2.02321	0.00373
520.89045	2.02259	0.00375
521.55578	2.02198	0.00376
522.22111	2.02136	0.00378
522.88644	2.02075	0.00379
523.55178	2.02014	0.00381
524.21711	2.01954	0.00382
524.88244	2.01893	0.00384
525.54777	2.01832	0.00386
526.21311	2.01772	0.00387
526.87844	2.01712	0.00389
527.54377	2.01652	0.0039
528.2091	2.01592	0.00392
528.87444	2.01532	0.00394
529.53977	2.01472	0.00395
530.2051	2.01412	0.00397
530.87044	2.01353	0.00398
531.53577	2.01294	0.004
532.2011	2.01235	0.00402
532.86643	2.01176	0.00403
533.53177	2.01117	0.00405
534.1971	2.01058	0.00407
534.86243	2.00999	0.00408
535.52776	2.00941	0.0041
536.1931	2.00882	0.00411
536.85843	2.00824	0.00413
537.52376	2.00766	0.00415
538.18909	2.00708	0.00416
538.85443	2.0065	0.00418
539.51976	2.00592	0.0042
540.18509	2.00534	0.00421
540.85043	2.00477	0.00423
541.51576	2.00419	0.00425
542.18109	2.00362	0.00427
542.84642	2.00304	0.00428
543.51176	2.00247	0.0043
544.17709	2.0019	0.00432
544.84242	2.00133	0.00433
545.50775	2.00076	0.00435
546.17309	2.0002	0.00437
546.83842	1.99963	0.00438
547.50375	1.99907	0.0044
548.16908	1.9985	0.00442
548.83442	1.99794	0.00444
549.49975	1.99738	0.00445
550.16508	1.99681	0.00447
550.83042	1.99625	0.00449
551.49575	1.99569	0.00451
552.16108	1.99514	0.00452
552.82641	1.99458	0.00454
553.49175	1.99402	0.00456
554.15708	1.99347	0.00458
554.82241	1.99291	0.00459
555.48774	1.99236	0.00461
556.15308	1.9918	0.00463
556.81841	1.99125	0.00465
557.48374	1.9907	0.00467
558.14907	1.99015	0.00468
558.81441	1.9896	0.0047
559.47974	1.98905	0.00472
560.14507	1.9885	0.00474
560.81041	1.98796	0.00476
561.47574	1.98741	0.00477
562.14107	1.98686	0.00479
562.8064	1.98632	0.00481
563.47174	1.98578	0.00483
564.13707	1.98523	0.00485
564.8024	1.98469	0.00487
565.46773	1.98415	0.00489
566.13307	1.98361	0.0049
566.7984	1.98307	0.00492
567.46373	1.98253	0.00494
568.12906	1.98199	0.00496
568.7944	1.98145	0.00498
569.45973	1.98092	0.005
570.12506	1.98038	0.00502
570.7904	1.97984	0.00504
571.45573	1.97931	0.00505
572.12106	1.97877	0.00507
572.78639	1.97824	0.00509
573.45173	1.97771	0.00511
574.11706	1.97717	0.00513
574.78239	1.97664	0.00515
575.44772	1.97611	0.00517
576.11306	1.97558	0.00519
576.77839	1.97505	0.00521
577.44372	1.97452	0.00523
578.10905	1.97399	0.00525
578.77439	1.97347	0.00527
579.43972	1.97294	0.00529
580.10505	1.97241	0.00531
580.77039	1.97188	0.00533
581.43572	1.97136	0.00534
582.10105	1.97083	0.00536
582.76638	1.97031	0.00538
583.43172	1.96979	0.0054
584.09705	1.96926	0.00542
584.76238	1.96874	0.00544
585.42771	1.96822	0.00546
586.09305	1.9677	0.00548
586.75838	1.96717	0.0055
587.42371	1.96665	0.00552
588.08904	1.96613	0.00555
588.75438	1.96561	0.00557
589.41971	1.9651	0.00559
590.08504	1.96458	0.00561
590.75038	1.96406	0.00563
591.41571	1.96354	0.00565
592.08104	1.96302	0.00567
592.74637	1.96251	0.00569
593.41171	1.96199	0.00571
594.07704	1.96148	0.00573
594.74237	1.96096	0.00575
595.4077	1.96045	0.00577
596.07304	1.95993	0.00579
596.73837	1.95942	0.00581
597.4037	1.9589	0.00583
598.06903	1.95839	0.00585
598.73437	1.95788	0.00588
599.3997	1.95737	0.0059
600.06503	1.95685	0.00592
600.73037	1.95634	0.00594
601.3957	1.95583	0.00596
602.06103	1.95532	0.00598
602.72636	1.95481	0.006
603.3917	1.9543	0.00602
604.05703	1.95379	0.00605
604.72236	1.95328	0.00607
605.38769	1.95277	0.00609
606.05303	1.95227	0.00611
606.71836	1.95176	0.00613
607.38369	1.95125	0.00615
608.04902	1.95074	0.00618
608.71436	1.95024	0.0062
609.37969	1.94973	0.00622
610.04502	1.94922	0.00624
610.71036	1.94872	0.00626
611.37569	1.94821	0.00629
612.04102	1.94771	0.00631
612.70635	1.9472	0.00633
613.37169	1.9467	0.00635
614.03702	1.94619	0.00638
614.70235	1.94569	0.0064
615.36768	1.94519	0.00642
616.03302	1.94468	0.00644
616.69835	1.94418	0.00647
617.36368	1.94368	0.00649
618.02901	1.94318	0.00651
618.69435	1.94267	0.00653
619.35968	1.94217	0.00656
620.02501	1.94167	0.00658
620.69035	1.94117	0.0066
621.35568	1.94067	0.00662
622.02101	1.94017	0.00665
622.68634	1.93967	0.00667
623.35168	1.93917	0.00669
624.01701	1.93867	0.00672
624.68234	1.93817	0.00674
625.34767	1.93767	0.00676
626.01301	1.93717	0.00679
626.67834	1.93667	0.00681
627.34367	1.93617	0.00683
628.009	1.93567	0.00686
628.67434	1.93518	0.00688
629.33967	1.93468	0.0069
630.005	1.93418	0.00693
630.67034	1.93368	0.00695
631.33567	1.93318	0.00698
632.001	1.93269	0.007
632.66633	1.93219	0.00702
633.33167	1.93169	0.00705
633.997	1.9312	0.00707
634.66233	1.9307	0.0071
635.32766	1.9302	0.00712
635.993	1.92971	0.00714
636.65833	1.92921	0.00717
637.32366	1.92872	0.00719
637.98899	1.92822	0.00722
638.65433	1.92773	0.00724
639.31966	1.92723	0.00727
639.98499	1.92674	0.00729
640.65033	1.92624	0.00731
641.31566	1.92575	0.00734
641.98099	1.92525	0.00736
642.64632	1.92476	0.00739
643.31166	1.92426	0.00741
643.97699	1.92377	0.00744
644.64232	1.92327	0.00746
645.30765	1.92278	0.00749
645.97299	1.92229	0.00751
646.63832	1.92179	0.00754
647.30365	1.9213	0.00756
647.96898	1.92081	0.00759
648.63432	1.92031	0.00761
649.29965	1.91982	0.00764
649.96498	1.91933	0.00767
650.63032	1.91884	0.00769
651.29565	1.91834	0.00772
651.96098	1.91785	0.00774
652.62631	1.91736	0.00777
653.29165	1.91686	0.00779
653.95698	1.91637	0.00782
654.62231	1.91588	0.00785
655.28764	1.91539	0.00787
655.95298	1.9149	0.0079
656.61831	1.9144	0.00792
657.28364	1.91391	0.00795
657.94897	1.91342	0.00798
658.61431	1.91293	0.008
659.27964	1.91244	0.00803
659.94497	1.91195	0.00805
660.61031	1.91145	0.00808
661.27564	1.91096	0.00811
661.94097	1.91047	0.00813
662.6063	1.90998	0.00816
663.27164	1.90949	0.00819
663.93697	1.909	0.00821
664.6023	1.90851	0.00824
665.26763	1.90802	0.00827
665.93297	1.90752	0.00829
666.5983	1.90703	0.00832
667.26363	1.90654	0.00835
667.92896	1.90605	0.00838
668.5943	1.90556	0.0084
669.25963	1.90507	0.00843
669.92496	1.90458	0.00846
670.5903	1.90409	0.00848
671.25563	1.9036	0.00851
671.92096	1.90311	0.00854
672.58629	1.90262	0.00857
673.25163	1.90213	0.0086
673.91696	1.90163	0.00862
674.58229	1.90114	0.00865
675.24762	1.90065	0.00868
675.91296	1.90016	0.00871
676.57829	1.89967	0.00873
677.24362	1.89918	0.00876
677.90895	1.89869	0.00879
678.57429	1.8982	0.00882
679.23962	1.89771	0.00885
679.90495	1.89722	0.00887
680.57029	1.89673	0.0089
681.23562	1.89624	0.00893
681.90095	1.89575	0.00896
682.56628	1.89526	0.00899
683.23162	1.89477	0.00902
683.89695	1.89427	0.00905
684.56228	1.89378	0.00907
685.22761	1.89329	0.0091
685.89295	1.8928	0.00913
686.55828	1.89231	0.00916
687.22361	1.89182	0.00919
687.88894	1.89133	0.00922
688.55428	1.89084	0.00925
689.21961	1.89035	0.00928
689.88494	1.88986	0.00931
690.55028	1.88937	0.00934
691.21561	1.88887	0.00937
691.88094	1.88838	0.0094
692.54627	1.88789	0.00942
693.21161	1.8874	0.00945
693.87694	1.88691	0.00948
694.54227	1.88642	0.00951
695.2076	1.88593	0.00954
695.87294	1.88544	0.00957
696.53827	1.88494	0.0096
697.2036	1.88445	0.00963
697.86893	1.88396	0.00966
698.53427	1.88347	0.00969
699.1996	1.88298	0.00972
699.86493	1.88249	0.00975
700.53027	1.88199	0.00978
701.1956	1.8815	0.00981
701.86093	1.88101	0.00985
702.52626	1.88052	0.00988
703.1916	1.88002	0.00991
703.85693	1.87953	0.00994
704.52226	1.87904	0.00997
705.18759	1.87855	0.01
705.85293	1.87805	0.01003
706.51826	1.87756	0.01006
707.18359	1.87707	0.01009
707.84892	1.87658	0.01012
708.51426	1.87608	0.01015
709.17959	1.87559	0.01019
709.84492	1.8751	0.01022
710.51026	1.8746	0.01025
711.17559	1.87411	0.01028
711.84092	1.87362	0.01031
712.50625	1.87312	0.01034
713.17159	1.87263	0.01037
713.83692	1.87214	0.01041
714.50225	1.87164	0.01044
715.16758	1.87115	0.01047
715.83292	1.87065	0.0105
716.49825	1.87016	0.01053
717.16358	1.86967	0.01057
717.82891	1.86917	0.0106
718.49425	1.86868	0.01063
719.15958	1.86818	0.01066
719.82491	1.86769	0.0107
720.49025	1.86719	0.01073
721.15558	1.8667	0.01076
721.82091	1.8662	0.01079
722.48624	1.86571	0.01083
723.15158	1.86521	0.01086
723.81691	1.86471	0.01089
724.48224	1.86422	0.01092
725.14757	1.86372	0.01096
725.81291	1.86323	0.01099
726.47824	1.86273	0.01102
727.14357	1.86223	0.01106
727.8089	1.86174	0.01109
728.47424	1.86124	0.01112
729.13957	1.86074	0.01116
729.8049	1.86025	0.01119
730.47024	1.85975	0.01122
731.13557	1.85925	0.01126
731.8009	1.85876	0.01129
732.46623	1.85826	0.01132
733.13157	1.85776	0.01136
733.7969	1.85726	0.01139
734.46223	1.85676	0.01143
735.12756	1.85627	0.01146
735.7929	1.85577	0.01149
736.45823	1.85527	0.01153
737.12356	1.85477	0.01156
737.78889	1.85427	0.0116
738.45423	1.85377	0.01163
739.11956	1.85327	0.01167
739.78489	1.85277	0.0117
740.45023	1.85227	0.01174
741.11556	1.85177	0.01177
741.78089	1.85127	0.01181
742.44622	1.85077	0.01184
743.11156	1.85027	0.01188
743.77689	1.84977	0.01191
744.44222	1.84927	0.01195
745.10755	1.84877	0.01198
745.77289	1.84827	0.01202
746.43822	1.84777	0.01205
747.10355	1.84727	0.01209
747.76888	1.84677	0.01212
748.43422	1.84626	0.01216
749.09955	1.84576	0.01219
749.76488	1.84526	0.01223
750.43022	1.84476	0.01227
751.09555	1.84425	0.0123
751.76088	1.84375	0.01234
752.42621	1.84325	0.01237
753.09155	1.84275	0.01241
753.75688	1.84224	0.01245
754.42221	1.84174	0.01248
755.08754	1.84123	0.01252
755.75288	1.84073	0.01256
756.41821	1.84023	0.01259
757.08354	1.83972	0.01263
757.74887	1.83922	0.01267
758.41421	1.83871	0.0127
759.07954	1.83821	0.01274
759.74487	1.8377	0.01278
760.41021	1.8372	0.01281
761.07554	1.83669	0.01285
761.74087	1.83618	0.01289
762.4062	1.83568	0.01293
763.07154	1.83517	0.01296
763.73687	1.83466	0.013
764.4022	1.83416	0.01304
765.06753	1.83365	0.01308
765.73287	1.83314	0.01311
766.3982	1.83264	0.01315
767.06353	1.83213	0.01319
767.72886	1.83162	0.01323
768.3942	1.83111	0.01326
769.05953	1.8306	0.0133
769.72486	1.83009	0.01334
770.3902	1.82958	0.01338
771.05553	1.82908	0.01342
771.72086	1.82857	0.01346
772.38619	1.82806	0.01349
773.05153	1.82755	0.01353
773.71686	1.82704	0.01357
774.38219	1.82653	0.01361
775.04752	1.82602	0.01365
775.71286	1.8255	0.01369
776.37819	1.82499	0.01373
777.04352	1.82448	0.01377
777.70885	1.82397	0.01381
778.37419	1.82346	0.01385
779.03952	1.82295	0.01388
779.70485	1.82243	0.01392
780.37019	1.82192	0.01396
781.03552	1.82141	0.014
781.70085	1.82089	0.01404
782.36618	1.82038	0.01408
783.03152	1.81987	0.01412
783.69685	1.81935	0.01416
784.36218	1.81884	0.0142
785.02751	1.81832	0.01424
785.69285	1.81781	0.01428
786.35818	1.81729	0.01432
787.02351	1.81678	0.01436
787.68884	1.81626	0.0144
788.35418	1.81575	0.01444
789.01951	1.81523	0.01449
789.68484	1.81471	0.01453
790.35018	1.8142	0.01457
791.01551	1.81368	0.01461
791.68084	1.81316	0.01465
792.34617	1.81265	0.01469
793.01151	1.81213	0.01473
793.67684	1.81161	0.01477
794.34217	1.81109	0.01481
795.0075	1.81057	0.01485
795.67284	1.81005	0.0149
796.33817	1.80953	0.01494
797.0035	1.80901	0.01498
797.66883	1.80849	0.01502
798.33417	1.80797	0.01506
798.9995	1.80745	0.01511
799.66483	1.80693	0.01515
800.33017	1.80641	0.01519
800.9955	1.80589	0.01523
801.66083	1.80537	0.01527
802.32616	1.80485	0.01532
802.9915	1.80433	0.01536
803.65683	1.8038	0.0154
804.32216	1.80328	0.01544
804.98749	1.80276	0.01549
805.65283	1.80223	0.01553
806.31816	1.80171	0.01557
806.98349	1.80119	0.01562
807.64882	1.80066	0.01566
808.31416	1.80014	0.0157
808.97949	1.79961	0.01575
809.64482	1.79909	0.01579
810.31016	1.79856	0.01583
810.97549	1.79804	0.01588
811.64082	1.79751	0.01592
812.30615	1.79698	0.01596
812.97149	1.79646	0.01601
813.63682	1.79593	0.01605
814.30215	1.7954	0.0161
814.96748	1.79487	0.01614
815.63282	1.79435	0.01618
816.29815	1.79382	0.01623
816.96348	1.79329	0.01627
817.62881	1.79276	0.01632
818.29415	1.79223	0.01636
818.95948	1.7917	0.01641
819.62481	1.79117	0.01645
820.29015	1.79064	0.0165
820.95548	1.79011	0.01654
821.62081	1.78958	0.01659
822.28614	1.78905	0.01663
822.95148	1.78852	0.01668
823.61681	1.78799	0.01672
824.28214	1.78745	0.01677
824.94747	1.78692	0.01681
825.61281	1.78639	0.01686
826.27814	1.78585	0.0169
826.94347	1.78532	0.01695
827.6088	1.78479	0.017
828.27414	1.78425	0.01704
828.93947	1.78372	0.01709
829.6048	1.78318	0.01713
830.27014	1.78265	0.01718
830.93547	1.78211	0.01723
831.6008	1.78158	0.01727
832.26613	1.78104	0.01732
832.93147	1.7805	0.01737
833.5968	1.77997	0.01741
834.26213	1.77943	0.01746
834.92746	1.77889	0.01751
835.5928	1.77835	0.01755
836.25813	1.77782	0.0176
836.92346	1.77728	0.01765
837.58879	1.77674	0.0177
838.25413	1.7762	0.01774
838.91946	1.77566	0.01779
839.58479	1.77512	0.01784
840.25013	1.77458	0.01789
840.91546	1.77404	0.01793
841.58079	1.7735	0.01798
842.24612	1.77295	0.01803
842.91146	1.77241	0.01808
843.57679	1.77187	0.01813
844.24212	1.77133	0.01818
844.90745	1.77079	0.01822
845.57279	1.77024	0.01827
846.23812	1.7697	0.01832
846.90345	1.76915	0.01837
847.56878	1.76861	0.01842
848.23412	1.76807	0.01847
848.89945	1.76752	0.01852
849.56478	1.76697	0.01857
850.23012	1.76643	0.01862
850.89545	1.76588	0.01867
851.56078	1.76534	0.01871
852.22611	1.76479	0.01876
852.89145	1.76424	0.01881
853.55678	1.76369	0.01886
854.22211	1.76315	0.01891
854.88744	1.7626	0.01896
855.55278	1.76205	0.01901
856.21811	1.7615	0.01906
856.88344	1.76095	0.01911
857.54877	1.7604	0.01916
858.21411	1.75985	0.01922
858.87944	1.7593	0.01927
859.54477	1.75875	0.01932
860.21011	1.7582	0.01937
860.87544	1.75765	0.01942
861.54077	1.75709	0.01947
862.2061	1.75654	0.01952
862.87144	1.75599	0.01957
863.53677	1.75543	0.01962
864.2021	1.75488	0.01968
864.86743	1.75433	0.01973
865.53277	1.75377	0.01978
866.1981	1.75322	0.01983
866.86343	1.75266	0.01988
867.52876	1.75211	0.01993
868.1941	1.75155	0.01999
868.85943	1.75099	0.02004
869.52476	1.75044	0.02009
870.1901	1.74988	0.02014
870.85543	1.74932	0.0202
871.52076	1.74876	0.02025
872.18609	1.7482	0.0203
872.85143	1.74765	0.02035
873.51676	1.74709	0.02041
874.18209	1.74653	0.02046
874.84742	1.74597	0.02051
875.51276	1.74541	0.02057
876.17809	1.74485	0.02062
876.84342	1.74428	0.02067
877.50875	1.74372	0.02073
878.17409	1.74316	0.02078
878.83942	1.7426	0.02084
879.50475	1.74204	0.02089
880.17009	1.74147	0.02094
880.83542	1.74091	0.021
881.50075	1.74034	0.02105
882.16608	1.73978	0.02111
882.83142	1.73921	0.02116
883.49675	1.73865	0.02122
884.16208	1.73808	0.02127
884.82741	1.73752	0.02132
885.49275	1.73695	0.02138
886.15808	1.73638	0.02143
886.82341	1.73582	0.02149
887.48874	1.73525	0.02155
888.15408	1.73468	0.0216
888.81941	1.73411	0.02166
889.48474	1.73354	0.02171
890.15008	1.73297	0.02177
890.81541	1.7324	0.02182
891.48074	1.73183	0.02188
892.14607	1.73126	0.02194
892.81141	1.73069	0.02199
893.47674	1.73012	0.02205
894.14207	1.72955	0.02211
894.8074	1.72897	0.02216
895.47274	1.7284	0.02222
896.13807	1.72783	0.02228
896.8034	1.72725	0.02233
897.46873	1.72668	0.02239
898.13407	1.72611	0.02245
898.7994	1.72553	0.0225
899.46473	1.72495	0.02256
900.13007	1.72438	0.02262
900.7954	1.7238	0.02268
901.46073	1.72323	0.02273
902.12606	1.72265	0.02279
902.7914	1.72207	0.02285
903.45673	1.72149	0.02291
904.12206	1.72091	0.02297
904.78739	1.72034	0.02302
905.45273	1.71976	0.02308
906.11806	1.71918	0.02314
906.78339	1.7186	0.0232
907.44872	1.71801	0.02326
908.11406	1.71743	0.02332
908.77939	1.71685	0.02338
909.44472	1.71627	0.02344
910.11006	1.71569	0.0235
910.77539	1.7151	0.02355
911.44072	1.71452	0.02361
912.10605	1.71394	0.02367
912.77139	1.71335	0.02373
913.43672	1.71277	0.02379
914.10205	1.71218	0.02385
914.76738	1.7116	0.02391
915.43272	1.71101	0.02397
916.09805	1.71042	0.02403
916.76338	1.70984	0.0241
917.42871	1.70925	0.02416
918.09405	1.70866	0.02422
918.75938	1.70807	0.02428
919.42471	1.70748	0.02434
920.09005	1.70689	0.0244
920.75538	1.7063	0.02446
921.42071	1.70571	0.02452
922.08604	1.70512	0.02458
922.75138	1.70453	0.02465
923.41671	1.70394	0.02471
924.08204	1.70335	0.02477
924.74737	1.70276	0.02483
925.41271	1.70216	0.02489
926.07804	1.70157	0.02496
926.74337	1.70098	0.02502
927.4087	1.70038	0.02508
928.07404	1.69979	0.02514
928.73937	1.69919	0.02521
929.4047	1.69859	0.02527
930.07004	1.698	0.02533
930.73537	1.6974	0.0254
931.4007	1.6968	0.02546
932.06603	1.69621	0.02552
932.73137	1.69561	0.02559
933.3967	1.69501	0.02565
934.06203	1.69441	0.02571
934.72736	1.69381	0.02578
935.3927	1.69321	0.02584
936.05803	1.69261	0.02591
936.72336	1.69201	0.02597
937.38869	1.69141	0.02603
938.05403	1.69081	0.0261
938.71936	1.6902	0.02616
939.38469	1.6896	0.02623
940.05003	1.689	0.02629
940.71536	1.68839	0.02636
941.38069	1.68779	0.02642
942.04602	1.68718	0.02649
942.71136	1.68658	0.02655
943.37669	1.68597	0.02662
944.04202	1.68536	0.02669
944.70735	1.68476	0.02675
945.37269	1.68415	0.02682
946.03802	1.68354	0.02688
946.70335	1.68293	0.02695
947.36868	1.68233	0.02702
948.03402	1.68172	0.02708
948.69935	1.68111	0.02715
949.36468	1.6805	0.02722
950.03002	1.67988	0.02728
950.69535	1.67927	0.02735
951.36068	1.67866	0.02742
952.02601	1.67805	0.02749
952.69135	1.67744	0.02755
953.35668	1.67682	0.02762
954.02201	1.67621	0.02769
954.68734	1.67559	0.02776
955.35268	1.67498	0.02783
956.01801	1.67436	0.02789
956.68334	1.67375	0.02796
957.34867	1.67313	0.02803
958.01401	1.67251	0.0281
958.67934	1.6719	0.02817
959.34467	1.67128	0.02824
960.01001	1.67066	0.02831
960.67534	1.67004	0.02838
961.34067	1.66942	0.02844
962.006	1.6688	0.02851
962.67134	1.66818	0.02858
963.33667	1.66756	0.02865
964.002	1.66694	0.02872
964.66733	1.66632	0.02879
965.33267	1.66569	0.02886
965.998	1.66507	0.02893
966.66333	1.66445	0.029
967.32866	1.66382	0.02908
967.994	1.6632	0.02915
968.65933	1.66257	0.02922
969.32466	1.66195	0.02929
969.98999	1.66132	0.02936
970.65533	1.66069	0.02943
971.32066	1.66007	0.0295
971.98599	1.65944	0.02957
972.65133	1.65881	0.02965
973.31666	1.65818	0.02972
973.98199	1.65755	0.02979
974.64732	1.65692	0.02986
975.31266	1.65629	0.02993
975.97799	1.65566	0.03001
976.64332	1.65503	0.03008
977.30865	1.6544	0.03015
977.97399	1.65377	0.03023
978.63932	1.65313	0.0303
979.30465	1.6525	0.03037
979.96998	1.65186	0.03045
980.63532	1.65123	0.03052
981.30065	1.6506	0.03059
981.96598	1.64996	0.03067
982.63132	1.64932	0.03074
983.29665	1.64869	0.03081
983.96198	1.64805	0.03089
984.62731	1.64741	0.03096
985.29265	1.64677	0.03104
985.95798	1.64613	0.03111
986.62331	1.64549	0.03119
987.28864	1.64485	0.03126
987.95398	1.64421	0.03134
988.61931	1.64357	0.03141
989.28464	1.64293	0.03149
989.94997	1.64229	0.03156
990.61531	1.64164	0.03164
991.28064	1.641	0.03172
991.94597	1.64036	0.03179
992.61131	1.63971	0.03187
993.27664	1.63907	0.03195
993.94197	1.63842	0.03202
994.6073	1.63778	0.0321
995.27264	1.63713	0.03218
995.93797	1.63648	0.03225
996.6033	1.63583	0.03233
997.26863	1.63519	0.03241
997.93397	1.63454	0.03249
998.5993	1.63389	0.03256
999.26463	1.63324	0.03264
999.92996	1.63259	0.03272
1000.5953	1.63194	0.0328
1001.26063	1.63128	0.03288
1001.92596	1.63063	0.03295
1002.5913	1.62998	0.03303
1003.25663	1.62932	0.03311
1003.92196	1.62867	0.03319
1004.58729	1.62802	0.03327
1005.25263	1.62736	0.03335
1005.91796	1.62671	0.03343
1006.58329	1.62605	0.03351
1007.24862	1.62539	0.03359
1007.91396	1.62473	0.03367
1008.57929	1.62408	0.03375
1009.24462	1.62342	0.03383
1009.90995	1.62276	0.03391
1010.57529	1.6221	0.03399
1011.24062	1.62144	0.03407
1011.90595	1.62078	0.03415
1012.57129	1.62012	0.03423
1013.23662	1.61945	0.03431
1013.90195	1.61879	0.0344
1014.56728	1.61813	0.03448
1015.23262	1.61746	0.03456
1015.89795	1.6168	0.03464
1016.56328	1.61613	0.03472
1017.22861	1.61547	0.03481
1017.89395	1.6148	0.03489
1018.55928	1.61414	0.03497
1019.22461	1.61347	0.03505
1019.88994	1.6128	0.03514
1020.55528	1.61213	0.03522
1021.22061	1.61146	0.0353
1021.88594	1.61079	0.03539
1022.55128	1.61012	0.03547
1023.21661	1.60945	0.03555
1023.88194	1.60878	0.03564
1024.54727	1.60811	0.03572
1025.21261	1.60744	0.03581
1025.87794	1.60676	0.03589
1026.54327	1.60609	0.03598
1027.2086	1.60541	0.03606
1027.87394	1.60474	0.03615
1028.53927	1.60406	0.03623
1029.2046	1.60339	0.03632
1029.86993	1.60271	0.0364
1030.53527	1.60203	0.03649
1031.2006	1.60135	0.03657
1031.86593	1.60068	0.03666
1032.53127	1.6	0.03675
1033.1966	1.59932	0.03683
1033.86193	1.59864	0.03692
1034.52726	1.59796	0.03701
1035.1926	1.59727	0.03709
1035.85793	1.59659	0.03718
1036.52326	1.59591	0.03727
1037.18859	1.59522	0.03736
1037.85393	1.59454	0.03744
1038.51926	1.59386	0.03753
1039.18459	1.59317	0.03762
1039.84992	1.59248	0.03771
1040.51526	1.5918	0.0378
1041.18059	1.59111	0.03788
1041.84592	1.59042	0.03797
1042.51126	1.58973	0.03806
1043.17659	1.58904	0.03815
1043.84192	1.58836	0.03824
1044.50725	1.58766	0.03833
1045.17259	1.58697	0.03842
1045.83792	1.58628	0.03851
1046.50325	1.58559	0.0386
1047.16858	1.5849	0.03869
1047.83392	1.5842	0.03878
1048.49925	1.58351	0.03887
1049.16458	1.58281	0.03896
1049.82991	1.58212	0.03905
1050.49525	1.58142	0.03915
1051.16058	1.58073	0.03924
1051.82591	1.58003	0.03933
1052.49125	1.57933	0.03942
1053.15658	1.57863	0.03951
1053.82191	1.57793	0.0396
1054.48724	1.57723	0.0397
1055.15258	1.57653	0.03979
1055.81791	1.57583	0.03988
1056.48324	1.57513	0.03998
1057.14857	1.57443	0.04007
1057.81391	1.57372	0.04016
1058.47924	1.57302	0.04026
1059.14457	1.57232	0.04035
1059.8099	1.57161	0.04044
1060.47524	1.57091	0.04054
1061.14057	1.5702	0.04063
1061.8059	1.56949	0.04073
1062.47124	1.56878	0.04082
1063.13657	1.56808	0.04092
1063.8019	1.56737	0.04101
1064.46723	1.56666	0.04111
1065.13257	1.56595	0.0412
1065.7979	1.56524	0.0413
1066.46323	1.56453	0.04139
1067.12856	1.56381	0.04149
1067.7939	1.5631	0.04159
1068.45923	1.56239	0.04168
1069.12456	1.56167	0.04178
1069.78989	1.56096	0.04188
1070.45523	1.56024	0.04197
1071.12056	1.55953	0.04207
1071.78589	1.55881	0.04217
1072.45123	1.55809	0.04227
1073.11656	1.55737	0.04236
1073.78189	1.55665	0.04246
1074.44722	1.55594	0.04256
1075.11256	1.55522	0.04266
1075.77789	1.55449	0.04276
1076.44322	1.55377	0.04286
1077.10855	1.55305	0.04296
1077.77389	1.55233	0.04305
1078.43922	1.5516	0.04315
1079.10455	1.55088	0.04325
1079.76988	1.55016	0.04335
1080.43522	1.54943	0.04345
1081.10055	1.5487	0.04355
1081.76588	1.54798	0.04366
1082.43122	1.54725	0.04376
1083.09655	1.54652	0.04386
1083.76188	1.54579	0.04396
1084.42721	1.54506	0.04406
1085.09255	1.54433	0.04416
1085.75788	1.5436	0.04426
1086.42321	1.54287	0.04437
1087.08854	1.54214	0.04447
1087.75388	1.5414	0.04457
1088.41921	1.54067	0.04467
1089.08454	1.53994	0.04478
1089.74987	1.5392	0.04488
1090.41521	1.53846	0.04498
1091.08054	1.53773	0.04509
1091.74587	1.53699	0.04519
1092.41121	1.53625	0.04529
1093.07654	1.53551	0.0454
1093.74187	1.53477	0.0455
1094.4072	1.53403	0.04561
1095.07254	1.53329	0.04571
1095.73787	1.53255	0.04582
1096.4032	1.53181	0.04592
1097.06853	1.53107	0.04603
1097.73387	1.53032	0.04614
1098.3992	1.52958	0.04624
1099.06453	1.52883	0.04635
1099.72986	1.52809	0.04645
1100.3952	1.52734	0.04656
1101.06053	1.5266	0.04667
1101.72586	1.52585	0.04678
1102.3912	1.5251	0.04688
1103.05653	1.52435	0.04699
1103.72186	1.5236	0.0471
1104.38719	1.52285	0.04721
1105.05253	1.5221	0.04731
1105.71786	1.52135	0.04742
1106.38319	1.52059	0.04753
1107.04852	1.51984	0.04764
1107.71386	1.51908	0.04775
1108.37919	1.51833	0.04786
1109.04452	1.51757	0.04797
1109.70985	1.51682	0.04808
1110.37519	1.51606	0.04819
1111.04052	1.5153	0.0483
1111.70585	1.51454	0.04841
1112.37119	1.51378	0.04852
1113.03652	1.51302	0.04863
1113.70185	1.51226	0.04874
1114.36718	1.5115	0.04886
1115.03252	1.51074	0.04897
1115.69785	1.50998	0.04908
1116.36318	1.50921	0.04919
1117.02851	1.50845	0.04931
1117.69385	1.50768	0.04942
1118.35918	1.50692	0.04953
1119.02451	1.50615	0.04964
1119.68984	1.50538	0.04976
1120.35518	1.50461	0.04987
1121.02051	1.50384	0.04999
1121.68584	1.50308	0.0501
1122.35118	1.5023	0.05022
1123.01651	1.50153	0.05033
1123.68184	1.50076	0.05045
1124.34717	1.49999	0.05056
1125.01251	1.49921	0.05068
1125.67784	1.49844	0.05079
1126.34317	1.49767	0.05091
1127.0085	1.49689	0.05102
1127.67384	1.49611	0.05114
1128.33917	1.49534	0.05126
1129.0045	1.49456	0.05137
1129.66983	1.49378	0.05149
1130.33517	1.493	0.05161
1131.0005	1.49222	0.05173
1131.66583	1.49144	0.05185
1132.33117	1.49066	0.05196
1132.9965	1.48987	0.05208
1133.66183	1.48909	0.0522
1134.32716	1.48831	0.05232
1134.9925	1.48752	0.05244
1135.65783	1.48673	0.05256
1136.32316	1.48595	0.05268
1136.98849	1.48516	0.0528
1137.65383	1.48437	0.05292
1138.31916	1.48358	0.05304
1138.98449	1.48279	0.05316
1139.64982	1.482	0.05328
1140.31516	1.48121	0.0534
1140.98049	1.48042	0.05353
1141.64582	1.47963	0.05365
1142.31116	1.47883	0.05377
1142.97649	1.47804	0.05389
1143.64182	1.47724	0.05402
1144.30715	1.47645	0.05414
1144.97249	1.47565	0.05426
1145.63782	1.47485	0.05439
1146.30315	1.47406	0.05451
1146.96848	1.47326	0.05463
1147.63382	1.47246	0.05476
1148.29915	1.47166	0.05488
1148.96448	1.47086	0.05501
1149.62981	1.47005	0.05513
1150.29515	1.46925	0.05526
1150.96048	1.46845	0.05538
1151.62581	1.46764	0.05551
1152.29115	1.46684	0.05564
1152.95648	1.46603	0.05576
1153.62181	1.46522	0.05589
1154.28714	1.46441	0.05602
1154.95248	1.46361	0.05615
1155.61781	1.4628	0.05627
1156.28314	1.46199	0.0564
1156.94847	1.46117	0.05653
1157.61381	1.46036	0.05666
1158.27914	1.45955	0.05679
1158.94447	1.45874	0.05692
1159.6098	1.45792	0.05705
1160.27514	1.45711	0.05718
1160.94047	1.45629	0.05731
1161.6058	1.45547	0.05744
1162.27114	1.45466	0.05757
1162.93647	1.45384	0.0577
1163.6018	1.45302	0.05783
1164.26713	1.4522	0.05796
1164.93247	1.45138	0.05809
1165.5978	1.45055	0.05822
1166.26313	1.44973	0.05836
1166.92846	1.44891	0.05849
1167.5938	1.44808	0.05862
1168.25913	1.44726	0.05876
1168.92446	1.44643	0.05889
1169.58979	1.4456	0.05902
1170.25513	1.44478	0.05916
1170.92046	1.44395	0.05929
1171.58579	1.44312	0.05943
1172.25113	1.44229	0.05956
1172.91646	1.44146	0.0597
1173.58179	1.44062	0.05983
1174.24712	1.43979	0.05997
1174.91246	1.43896	0.06011
1175.57779	1.43812	0.06024
1176.24312	1.43729	0.06038
1176.90845	1.43645	0.06052
1177.57379	1.43561	0.06065
1178.23912	1.43478	0.06079
1178.90445	1.43394	0.06093
1179.56978	1.4331	0.06107
1180.23512	1.43226	0.06121
1180.90045	1.43142	0.06135
1181.56578	1.43057	0.06149
1182.23112	1.42973	0.06163
1182.89645	1.42889	0.06177
1183.56178	1.42804	0.06191
1184.22711	1.42719	0.06205
1184.89245	1.42635	0.06219
1185.55778	1.4255	0.06233
1186.22311	1.42465	0.06247
1186.88844	1.4238	0.06261
1187.55378	1.42295	0.06276
1188.21911	1.4221	0.0629
1188.88444	1.42125	0.06304
1189.54977	1.4204	0.06318
1190.21511	1.41954	0.06333
1190.88044	1.41869	0.06347
1191.54577	1.41783	0.06362
1192.21111	1.41698	0.06376
1192.87644	1.41612	0.06391
1193.54177	1.41526	0.06405
1194.2071	1.4144	0.0642
1194.87244	1.41354	0.06434
1195.53777	1.41268	0.06449
1196.2031	1.41182	0.06464
1196.86843	1.41096	0.06478
1197.53377	1.41009	0.06493
1198.1991	1.40923	0.06508
1198.86443	1.40836	0.06523
1199.52976	1.40749	0.06537
1200.1951	1.40663	0.06552
1200.86043	1.40576	0.06567
1201.52576	1.40489	0.06582
1202.1911	1.40402	0.06597
1202.85643	1.40315	0.06612
1203.52176	1.40228	0.06627
1204.18709	1.4014	0.06642
1204.85243	1.40053	0.06657
1205.51776	1.39966	0.06672
1206.18309	1.39878	0.06688
1206.84842	1.3979	0.06703
1207.51376	1.39703	0.06718
1208.17909	1.39615	0.06733
1208.84442	1.39527	0.06749
1209.50975	1.39439	0.06764
1210.17509	1.39351	0.0678
1210.84042	1.39262	0.06795
1211.50575	1.39174	0.0681
1212.17109	1.39086	0.06826
1212.83642	1.38997	0.06841
1213.50175	1.38909	0.06857
1214.16708	1.3882	0.06873
1214.83242	1.38731	0.06888
1215.49775	1.38642	0.06904
1216.16308	1.38553	0.0692
1216.82841	1.38464	0.06936
1217.49375	1.38375	0.06951
1218.15908	1.38286	0.06967
1218.82441	1.38197	0.06983
1219.48974	1.38107	0.06999
1220.15508	1.38018	0.07015
1220.82041	1.37928	0.07031
1221.48574	1.37838	0.07047
1222.15108	1.37748	0.07063
1222.81641	1.37658	0.07079
1223.48174	1.37568	0.07095
1224.14707	1.37478	0.07111
1224.81241	1.37388	0.07128
1225.47774	1.37298	0.07144
1226.14307	1.37207	0.0716
1226.8084	1.37117	0.07177
1227.47374	1.37026	0.07193
1228.13907	1.36935	0.07209
1228.8044	1.36845	0.07226
1229.46973	1.36754	0.07242
1230.13507	1.36663	0.07259
1230.8004	1.36572	0.07275
1231.46573	1.3648	0.07292
1232.13107	1.36389	0.07309
1232.7964	1.36298	0.07325
1233.46173	1.36206	0.07342
1234.12706	1.36114	0.07359
1234.7924	1.36023	0.07376
1235.45773	1.35931	0.07393
1236.12306	1.35839	0.07409
1236.78839	1.35747	0.07426
1237.45373	1.35655	0.07443
1238.11906	1.35563	0.0746
1238.78439	1.3547	0.07477
1239.44972	1.35378	0.07495
1240.11506	1.35285	0.07512
1240.78039	1.35193	0.07529
1241.44572	1.351	0.07546
1242.11106	1.35007	0.07563
1242.77639	1.34914	0.07581
1243.44172	1.34821	0.07598
1244.10705	1.34728	0.07615
1244.77239	1.34635	0.07633
1245.43772	1.34542	0.0765
1246.10305	1.34448	0.07668
1246.76838	1.34355	0.07686
1247.43372	1.34261	0.07703
1248.09905	1.34167	0.07721
1248.76438	1.34073	0.07738
1249.42971	1.33979	0.07756
1250.09505	1.33885	0.07774
1250.76038	1.33791	0.07792
1251.42571	1.33697	0.0781
1252.09105	1.33602	0.07828
1252.75638	1.33508	0.07846
1253.42171	1.33413	0.07864
1254.08704	1.33319	0.07882
1254.75238	1.33224	0.079
1255.41771	1.33129	0.07918
1256.08304	1.33034	0.07936
1256.74837	1.32939	0.07954
1257.41371	1.32844	0.07973
1258.07904	1.32748	0.07991
1258.74437	1.32653	0.08009
1259.4097	1.32557	0.08028
1260.07504	1.32462	0.08046
1260.74037	1.32366	0.08065
1261.4057	1.3227	0.08083
1262.07104	1.32174	0.08102
1262.73637	1.32078	0.08121
1263.4017	1.31982	0.08139
1264.06703	1.31885	0.08158
1264.73237	1.31789	0.08177
1265.3977	1.31692	0.08196
1266.06303	1.31596	0.08215
1266.72836	1.31499	0.08234
1267.3937	1.31402	0.08253
1268.05903	1.31305	0.08272
1268.72436	1.31208	0.08291
1269.38969	1.31111	0.0831
1270.05503	1.31013	0.08329
1270.72036	1.30916	0.08348
1271.38569	1.30818	0.08368
1272.05103	1.30721	0.08387
1272.71636	1.30623	0.08406
1273.38169	1.30525	0.08426
1274.04702	1.30427	0.08445
1274.71236	1.30329	0.08465
1275.37769	1.30231	0.08484
1276.04302	1.30133	0.08504
1276.70835	1.30034	0.08524
1277.37369	1.29936	0.08543
1278.03902	1.29837	0.08563
1278.70435	1.29738	0.08583
1279.36968	1.29639	0.08603
1280.03502	1.2954	0.08623
1280.70035	1.29441	0.08643
1281.36568	1.29342	0.08663
1282.03102	1.29243	0.08683
1282.69635	1.29143	0.08703
1283.36168	1.29044	0.08723
1284.02701	1.28944	0.08744
1284.69235	1.28844	0.08764
1285.35768	1.28744	0.08784
1286.02301	1.28644	0.08805
1286.68834	1.28544	0.08825
1287.35368	1.28444	0.08846
1288.01901	1.28343	0.08866
1288.68434	1.28243	0.08887
1289.34967	1.28142	0.08907
1290.01501	1.28041	0.08928
1290.68034	1.27941	0.08949
1291.34567	1.2784	0.0897
1292.01101	1.27738	0.08991
1292.67634	1.27637	0.09012
1293.34167	1.27536	0.09033
1294.007	1.27434	0.09054
1294.67234	1.27333	0.09075
1295.33767	1.27231	0.09096
1296.003	1.27129	0.09117
1296.66833	1.27027	0.09139
1297.33367	1.26925	0.0916
1297.999	1.26823	0.09181
1298.66433	1.26721	0.09203
1299.32966	1.26618	0.09224
1299.995	1.26516	0.09246
1300.66033	1.26413	0.09268
1301.32566	1.2631	0.09289
1301.991	1.26207	0.09311
1302.65633	1.26104	0.09333
1303.32166	1.26001	0.09355
1303.98699	1.25898	0.09377
1304.65233	1.25795	0.09399
1305.31766	1.25691	0.09421
1305.98299	1.25587	0.09443
1306.64832	1.25484	0.09465
1307.31366	1.2538	0.09487
1307.97899	1.25276	0.0951
1308.64432	1.25172	0.09532
1309.30965	1.25067	0.09554
1309.97499	1.24963	0.09577
1310.64032	1.24858	0.09599
1311.30565	1.24754	0.09622
1311.97099	1.24649	0.09645
1312.63632	1.24544	0.09668
1313.30165	1.24439	0.0969
1313.96698	1.24334	0.09713
1314.63232	1.24228	0.09736
1315.29765	1.24123	0.09759
1315.96298	1.24018	0.09782
1316.62831	1.23912	0.09805
1317.29365	1.23806	0.09828
1317.95898	1.237	0.09852
1318.62431	1.23594	0.09875
1319.28964	1.23488	0.09898
1319.95498	1.23382	0.09922
1320.62031	1.23275	0.09945
1321.28564	1.23169	0.09969
1321.95098	1.23062	0.09992
1322.61631	1.22955	0.10016
1323.28164	1.22848	0.1004
1323.94697	1.22741	0.10064
1324.61231	1.22634	0.10088
1325.27764	1.22526	0.10112
1325.94297	1.22419	0.10136
1326.6083	1.22311	0.1016
1327.27364	1.22203	0.10184
1327.93897	1.22095	0.10208
1328.6043	1.21987	0.10233
1329.26963	1.21879	0.10257
1329.93497	1.21771	0.10281
1330.6003	1.21663	0.10306
1331.26563	1.21554	0.10331
1331.93097	1.21445	0.10355
1332.5963	1.21336	0.1038
1333.26163	1.21227	0.10405
1333.92696	1.21118	0.1043
1334.5923	1.21009	0.10455
1335.25763	1.209	0.1048
1335.92296	1.2079	0.10505
1336.58829	1.2068	0.1053
1337.25363	1.20571	0.10555
1337.91896	1.20461	0.1058
1338.58429	1.20351	0.10606
1339.24962	1.2024	0.10631
1339.91496	1.2013	0.10657
1340.58029	1.2002	0.10682
1341.24562	1.19909	0.10708
1341.91096	1.19798	0.10734
1342.57629	1.19687	0.1076
1343.24162	1.19576	0.10786
1343.90695	1.19465	0.10812
1344.57229	1.19354	0.10838
1345.23762	1.19242	0.10864
1345.90295	1.19131	0.1089
1346.56828	1.19019	0.10916
1347.23362	1.18907	0.10943
1347.89895	1.18795	0.10969
1348.56428	1.18683	0.10996
1349.22961	1.18571	0.11022
1349.89495	1.18458	0.11049
1350.56028	1.18345	0.11076
1351.22561	1.18233	0.11103
1351.89095	1.1812	0.1113
1352.55628	1.18007	0.11157
1353.22161	1.17894	0.11184
1353.88694	1.1778	0.11211
1354.55228	1.17667	0.11238
1355.21761	1.17553	0.11266
1355.88294	1.17439	0.11293
1356.54827	1.17325	0.1132
1357.21361	1.17211	0.11348
1357.87894	1.17097	0.11376
1358.54427	1.16983	0.11404
1359.2096	1.16868	0.11431
1359.87494	1.16754	0.11459
1360.54027	1.16639	0.11487
1361.2056	1.16524	0.11515
1361.87094	1.16409	0.11544
1362.53627	1.16294	0.11572
1363.2016	1.16178	0.116
1363.86693	1.16063	0.11629
1364.53227	1.15947	0.11657
1365.1976	1.15831	0.11686
1365.86293	1.15715	0.11715
1366.52826	1.15599	0.11743
1367.1936	1.15483	0.11772
1367.85893	1.15366	0.11801
1368.52426	1.15249	0.1183
1369.18959	1.15133	0.1186
1369.85493	1.15016	0.11889
1370.52026	1.14899	0.11918
1371.18559	1.14781	0.11948
1371.85093	1.14664	0.11977
1372.51626	1.14547	0.12007
1373.18159	1.14429	0.12037
1373.84692	1.14311	0.12066
1374.51226	1.14193	0.12096
1375.17759	1.14075	0.12126
1375.84292	1.13956	0.12156
1376.50825	1.13838	0.12187
1377.17359	1.13719	0.12217
1377.83892	1.13601	0.12247
1378.50425	1.13482	0.12278
1379.16958	1.13362	0.12308
1379.83492	1.13243	0.12339
1380.50025	1.13124	0.1237
1381.16558	1.13004	0.12401
1381.83092	1.12884	0.12432
1382.49625	1.12765	0.12463
1383.16158	1.12644	0.12494
1383.82691	1.12524	0.12525
1384.49225	1.12404	0.12557
1385.15758	1.12283	0.12588
1385.82291	1.12163	0.1262
1386.48824	1.12042	0.12652
1387.15358	1.11921	0.12683
1387.81891	1.11799	0.12715
1388.48424	1.11678	0.12747
1389.14957	1.11557	0.12779
1389.81491	1.11435	0.12812
1390.48024	1.11313	0.12844
1391.14557	1.11191	0.12876
1391.81091	1.11069	0.12909
1392.47624	1.10946	0.12942
1393.14157	1.10824	0.12974
1393.8069	1.10701	0.13007
1394.47224	1.10578	0.1304
1395.13757	1.10455	0.13073
1395.8029	1.10332	0.13107
1396.46823	1.10209	0.1314
1397.13357	1.10085	0.13173
1397.7989	1.09961	0.13207
1398.46423	1.09838	0.13241
1399.12956	1.09714	0.13274
1399.7949	1.09589	0.13308
1400.46023	1.09465	0.13342
1401.12556	1.0934	0.13376
1401.7909	1.09216	0.13411
1402.45623	1.09091	0.13445
1403.12156	1.08966	0.13479
1403.78689	1.0884	0.13514
1404.45223	1.08715	0.13549
1405.11756	1.08589	0.13584
1405.78289	1.08464	0.13618
1406.44822	1.08338	0.13654
1407.11356	1.08212	0.13689
1407.77889	1.08085	0.13724
1408.44422	1.07959	0.13759
1409.10955	1.07832	0.13795
1409.77489	1.07705	0.13831
1410.44022	1.07578	0.13867
1411.10555	1.07451	0.13902
1411.77089	1.07324	0.13939
1412.43622	1.07196	0.13975
1413.10155	1.07068	0.14011
1413.76688	1.06941	0.14048
1414.43222	1.06812	0.14084
1415.09755	1.06684	0.14121
1415.76288	1.06556	0.14158
1416.42821	1.06427	0.14195
1417.09355	1.06298	0.14232
1417.75888	1.06169	0.14269
1418.42421	1.0604	0.14306
1419.08954	1.05911	0.14344
1419.75488	1.05781	0.14381
1420.42021	1.05652	0.14419
1421.08554	1.05522	0.14457
1421.75088	1.05392	0.14495
1422.41621	1.05261	0.14533
1423.08154	1.05131	0.14572
1423.74687	1.05	0.1461
1424.41221	1.04869	0.14649
1425.07754	1.04738	0.14688
1425.74287	1.04607	0.14726
1426.4082	1.04476	0.14765
1427.07354	1.04344	0.14805
1427.73887	1.04213	0.14844
1428.4042	1.04081	0.14883
1429.06953	1.03948	0.14923
1429.73487	1.03816	0.14963
1430.4002	1.03684	0.15003
1431.06553	1.03551	0.15043
1431.73087	1.03418	0.15083
1432.3962	1.03285	0.15123
1433.06153	1.03152	0.15164
1433.72686	1.03018	0.15204
1434.3922	1.02884	0.15245
1435.05753	1.02751	0.15286
1435.72286	1.02617	0.15327
1436.38819	1.02482	0.15369
1437.05353	1.02348	0.1541
1437.71886	1.02213	0.15452
1438.38419	1.02078	0.15493
1439.04952	1.01943	0.15535
1439.71486	1.01808	0.15577
1440.38019	1.01673	0.1562
1441.04552	1.01537	0.15662
1441.71086	1.01401	0.15705
1442.37619	1.01265	0.15747
1443.04152	1.01129	0.1579
1443.70685	1.00993	0.15833
1444.37219	1.00856	0.15877
1445.03752	1.00719	0.1592
1445.70285	1.00582	0.15963
1446.36818	1.00445	0.16007
1447.03352	1.00308	0.16051
1447.69885	1.0017	0.16095
1448.36418	1.00032	0.16139
1449.02951	0.99894	0.16184
1449.69485	0.99756	0.16228
1450.36018	0.99618	0.16273
1451.02551	0.99479	0.16318
1451.69085	0.9934	0.16363
1452.35618	0.99201	0.16409
1453.02151	0.99062	0.16454
1453.68684	0.98922	0.165
1454.35218	0.98783	0.16546
1455.01751	0.98643	0.16592
1455.68284	0.98503	0.16638
1456.34817	0.98362	0.16684
1457.01351	0.98222	0.16731
1457.67884	0.98081	0.16778
1458.34417	0.9794	0.16825
1459.0095	0.97799	0.16872
1459.67484	0.97658	0.16919
1460.34017	0.97516	0.16967
1461.0055	0.97375	0.17015
1461.67084	0.97233	0.17063
1462.33617	0.97091	0.17111
1463.0015	0.96948	0.17159
1463.66683	0.96806	0.17208
1464.33217	0.96663	0.17257
1464.9975	0.9652	0.17305
1465.66283	0.96377	0.17355
1466.32816	0.96233	0.17404
1466.9935	0.9609	0.17454
1467.65883	0.95946	0.17503
1468.32416	0.95802	0.17553
1468.98949	0.95657	0.17604
1469.65483	0.95513	0.17654
1470.32016	0.95368	0.17705
1470.98549	0.95223	0.17756
1471.65083	0.95078	0.17807
1472.31616	0.94933	0.17858
1472.98149	0.94787	0.17909
1473.64682	0.94641	0.17961
1474.31216	0.94495	0.18013
1474.97749	0.94349	0.18065
1475.64282	0.94203	0.18118
1476.30815	0.94056	0.1817
1476.97349	0.93909	0.18223
1477.63882	0.93762	0.18276
1478.30415	0.93615	0.1833
1478.96948	0.93467	0.18383
1479.63482	0.93319	0.18437
1480.30015	0.93171	0.18491
1480.96548	0.93023	0.18545
1481.63082	0.92875	0.186
1482.29615	0.92726	0.18654
1482.96148	0.92577	0.18709
1483.62681	0.92428	0.18765
1484.29215	0.92279	0.1882
1484.95748	0.92129	0.18876
1485.62281	0.91979	0.18932
1486.28814	0.91829	0.18988
1486.95348	0.91679	0.19045
1487.61881	0.91529	0.19101
1488.28414	0.91378	0.19158
1488.94947	0.91227	0.19216
1489.61481	0.91076	0.19273
1490.28014	0.90925	0.19331
1490.94547	0.90773	0.19389
1491.61081	0.90621	0.19447
1492.27614	0.90469	0.19506
1492.94147	0.90317	0.19565
1493.6068	0.90165	0.19624
1494.27214	0.90012	0.19683
1494.93747	0.89859	0.19743
1495.6028	0.89706	0.19803
1496.26813	0.89553	0.19863
1496.93347	0.89399	0.19923
1497.5988	0.89245	0.19984
1498.26413	0.89091	0.20045
1498.92946	0.88937	0.20106
1499.5948	0.88782	0.20168
1500.26013	0.88627	0.2023
1500.92546	0.88473	0.20292
1501.5908	0.88317	0.20355
1502.25613	0.88162	0.20418
1502.92146	0.88006	0.20481
1503.58679	0.8785	0.20544
1504.25213	0.87694	0.20608
1504.91746	0.87538	0.20672
1505.58279	0.87381	0.20736
1506.24812	0.87224	0.20801
1506.91346	0.87067	0.20866
1507.57879	0.8691	0.20931
1508.24412	0.86753	0.20996
1508.90945	0.86595	0.21062
1509.57479	0.86437	0.21128
1510.24012	0.86279	0.21195
1510.90545	0.8612	0.21262
1511.57079	0.85962	0.21329
1512.23612	0.85803	0.21397
1512.90145	0.85644	0.21464
1513.56678	0.85485	0.21533
1514.23212	0.85325	0.21601
1514.89745	0.85165	0.2167
1515.56278	0.85005	0.21739
1516.22811	0.84845	0.21809
1516.89345	0.84685	0.21879
1517.55878	0.84524	0.21949
1518.22411	0.84363	0.22019
1518.88944	0.84202	0.2209
1519.55478	0.8404	0.22162
1520.22011	0.83879	0.22233
1520.88544	0.83717	0.22305
1521.55078	0.83555	0.22378
1522.21611	0.83393	0.2245
1522.88144	0.8323	0.22523
1523.54677	0.83067	0.22597
1524.21211	0.82905	0.22671
1524.87744	0.82741	0.22745
1525.54277	0.82578	0.2282
1526.2081	0.82414	0.22895
1526.87344	0.8225	0.2297
1527.53877	0.82086	0.23046
1528.2041	0.81922	0.23122
1528.86943	0.81758	0.23199
1529.53477	0.81593	0.23276
1530.2001	0.81428	0.23353
1530.86543	0.81263	0.23431
1531.53077	0.81097	0.23509
1532.1961	0.80932	0.23587
1532.86143	0.80766	0.23666
1533.52676	0.806	0.23746
1534.1921	0.80434	0.23826
1534.85743	0.80267	0.23906
1535.52276	0.80101	0.23987
1536.18809	0.79934	0.24068
1536.85343	0.79767	0.24149
1537.51876	0.79599	0.24231
1538.18409	0.79432	0.24313
1538.84942	0.79264	0.24396
1539.51476	0.79096	0.2448
1540.18009	0.78928	0.24563
1540.84542	0.7876	0.24647
1541.51076	0.78591	0.24732
1542.17609	0.78422	0.24817
1542.84142	0.78253	0.24903
1543.50675	0.78084	0.24989
1544.17209	0.77915	0.25075
1544.83742	0.77745	0.25162
1545.50275	0.77576	0.25249
1546.16808	0.77406	0.25337
1546.83342	0.77235	0.25426
1547.49875	0.77065	0.25515
1548.16408	0.76895	0.25604
1548.82941	0.76724	0.25694
1549.49475	0.76553	0.25784
1550.16008	0.76382	0.25875
1550.82541	0.76211	0.25966
1551.49075	0.76039	0.26058
1552.15608	0.75867	0.2615
1552.82141	0.75696	0.26243
1553.48674	0.75524	0.26336
1554.15208	0.75351	0.2643
1554.81741	0.75179	0.26524
1555.48274	0.75007	0.26619
1556.14807	0.74834	0.26715
1556.81341	0.74661	0.26811
1557.47874	0.74488	0.26907
1558.14407	0.74315	0.27004
1558.8094	0.74141	0.27102
1559.47474	0.73968	0.272
1560.14007	0.73794	0.27298
1560.8054	0.7362	0.27398
1561.47074	0.73446	0.27497
1562.13607	0.73272	0.27598
1562.8014	0.73098	0.27699
1563.46673	0.72924	0.278
1564.13207	0.72749	0.27902
1564.7974	0.72574	0.28005
1565.46273	0.724	0.28108
1566.12806	0.72225	0.28212
1566.7934	0.72049	0.28316
1567.45873	0.71874	0.28421
1568.12406	0.71699	0.28526
1568.78939	0.71523	0.28632
1569.45473	0.71348	0.28739
1570.12006	0.71172	0.28846
1570.78539	0.70996	0.28954
1571.45073	0.7082	0.29063
1572.11606	0.70644	0.29172
1572.78139	0.70468	0.29282
1573.44672	0.70292	0.29392
1574.11206	0.70116	0.29503
1574.77739	0.69939	0.29615
1575.44272	0.69763	0.29727
1576.10805	0.69586	0.2984
1576.77339	0.6941	0.29953
1577.43872	0.69233	0.30067
1578.10405	0.69056	0.30182
1578.76938	0.6888	0.30298
1579.43472	0.68703	0.30414
1580.10005	0.68526	0.30531
1580.76538	0.68349	0.30648
1581.43072	0.68172	0.30766
1582.09605	0.67995	0.30885
1582.76138	0.67817	0.31004
1583.42671	0.6764	0.31124
1584.09205	0.67463	0.31245
1584.75738	0.67286	0.31367
1585.42271	0.67109	0.31489
1586.08804	0.66931	0.31612
1586.75338	0.66754	0.31735
1587.41871	0.66577	0.31859
1588.08404	0.664	0.31984
1588.74937	0.66222	0.3211
1589.41471	0.66045	0.32236
1590.08004	0.65868	0.32363
1590.74537	0.65691	0.32491
1591.41071	0.65514	0.32619
1592.07604	0.65337	0.32748
1592.74137	0.65159	0.32878
1593.4067	0.64982	0.33009
1594.07204	0.64805	0.3314
1594.73737	0.64629	0.33272
1595.4027	0.64452	0.33405
1596.06803	0.64275	0.33538
1596.73337	0.64098	0.33672
1597.3987	0.63922	0.33807
1598.06403	0.63745	0.33943
1598.72936	0.63569	0.34079
1599.3947	0.63392	0.34216
1600.06003	0.63216	0.34354
1600.72536	0.6304	0.34493
1601.3907	0.62864	0.34632
1602.05603	0.62688	0.34772
1602.72136	0.62513	0.34913
1603.38669	0.62337	0.35054
1604.05203	0.62162	0.35197
1604.71736	0.61987	0.3534
1605.38269	0.61812	0.35484
1606.04802	0.61637	0.35628
1606.71336	0.61462	0.35773
1607.37869	0.61287	0.3592
1608.04402	0.61113	0.36066
1608.70935	0.60939	0.36214
1609.37469	0.60765	0.36362
1610.04002	0.60592	0.36511
1610.70535	0.60418	0.36661
1611.37069	0.60245	0.36812
1612.03602	0.60072	0.36963
1612.70135	0.59899	0.37115
1613.36668	0.59727	0.37268
1614.03202	0.59555	0.37422
1614.69735	0.59383	0.37576
1615.36268	0.59211	0.37731
1616.02801	0.5904	0.37887
1616.69335	0.58869	0.38044
1617.35868	0.58698	0.38201
1618.02401	0.58527	0.38359
1618.68934	0.58357	0.38518
1619.35468	0.58188	0.38678
1620.02001	0.58018	0.38838
1620.68534	0.57849	0.38999
1621.35068	0.5768	0.39161
1622.01601	0.57512	0.39324
1622.68134	0.57344	0.39487
1623.34667	0.57176	0.39651
1624.01201	0.57009	0.39816
1624.67734	0.56842	0.39981
1625.34267	0.56676	0.40148
1626.008	0.5651	0.40315
1626.67334	0.56344	0.40482
1627.33867	0.56179	0.40651
1628.004	0.56014	0.4082
1628.66933	0.5585	0.4099
1629.33467	0.55686	0.4116
1630	0.55523	0.41332