// thickness-independent fraction of light power (for rudimentary optics) between 0 and 1
simple transmission coefficient:
1

// wavelength-independent absorption coefficient 'a' according to I(z)=I0*exp(-a*z) in [1/m]
lambert beer absorption coefficient:
0

// three-column refractive data for TMM calculations with wavelength [nm], n, k (must be tab-separated)
refractive data:
300	2.41228	0.3062
300.66533	2.41193	0.30258
301.33067	2.41156	0.29897
301.996	2.41115	0.29538
302.66133	2.41073	0.2918
303.32666	2.41027	0.28823
303.992	2.4098	0.28467
304.65733	2.40929	0.28113
305.32266	2.40877	0.2776
305.98799	2.40821	0.27408
306.65333	2.40764	0.27058
307.31866	2.40703	0.26709
307.98399	2.40641	0.26362
308.64932	2.40576	0.26016
309.31466	2.40508	0.25671
309.97999	2.40438	0.25328
310.64532	2.40366	0.24987
311.31066	2.40291	0.24647
311.97599	2.40214	0.24308
312.64132	2.40135	0.23971
313.30665	2.40053	0.23636
313.97199	2.39969	0.23302
314.63732	2.39883	0.22969
315.30265	2.39794	0.22638
315.96798	2.39703	0.22309
316.63332	2.3961	0.21982
317.29865	2.39514	0.21656
317.96398	2.39416	0.21332
318.62931	2.39316	0.21009
319.29465	2.39214	0.20688
319.95998	2.39109	0.20369
320.62531	2.39002	0.20052
321.29065	2.38893	0.19736
321.95598	2.38782	0.19422
322.62131	2.38669	0.1911
323.28664	2.38553	0.188
323.95198	2.38436	0.18491
324.61731	2.38316	0.18185
325.28264	2.38194	0.1788
325.94797	2.3807	0.17577
326.61331	2.37944	0.17276
327.27864	2.37816	0.16977
327.94397	2.37686	0.16679
328.6093	2.37554	0.16384
329.27464	2.37419	0.16091
329.93997	2.37283	0.158
330.6053	2.37145	0.1551
331.27064	2.37005	0.15223
331.93597	2.36863	0.14938
332.6013	2.36718	0.14655
333.26663	2.36572	0.14373
333.93197	2.36424	0.14094
334.5973	2.36274	0.13817
335.26263	2.36123	0.13543
335.92796	2.35969	0.1327
336.5933	2.35814	0.12999
337.25863	2.35656	0.12731
337.92396	2.35497	0.12465
338.58929	2.35336	0.12201
339.25463	2.35173	0.11939
339.91996	2.35009	0.1168
340.58529	2.34843	0.11423
341.25063	2.34675	0.11168
341.91596	2.34505	0.10915
342.58129	2.34334	0.10665
343.24662	2.34161	0.10417
343.91196	2.33986	0.10171
344.57729	2.3381	0.09928
345.24262	2.33632	0.09688
345.90795	2.33453	0.09449
346.57329	2.33272	0.09213
347.23862	2.33089	0.0898
347.90395	2.32905	0.08749
348.56928	2.3272	0.08521
349.23462	2.32533	0.08295
349.89995	2.32344	0.08071
350.56528	2.32154	0.07851
351.23062	2.31963	0.07632
351.89595	2.3177	0.07417
352.56128	2.31576	0.07204
353.22661	2.31381	0.06994
353.89195	2.31184	0.06786
354.55728	2.30986	0.06581
355.22261	2.30787	0.06379
355.88794	2.30587	0.06179
356.55328	2.30385	0.05982
357.21861	2.30182	0.05788
357.88394	2.29978	0.05597
358.54927	2.29773	0.05409
359.21461	2.29567	0.05223
359.87994	2.2936	0.0504
360.54527	2.29152	0.0486
361.21061	2.28943	0.04683
361.87594	2.28733	0.04509
362.54127	2.28521	0.04338
363.2066	2.2831	0.0417
363.87194	2.28097	0.04005
364.53727	2.27883	0.03843
365.2026	2.27669	0.03684
365.86793	2.27453	0.03528
366.53327	2.27238	0.03375
367.1986	2.27021	0.03225
367.86393	2.26804	0.03078
368.52926	2.26586	0.02934
369.1946	2.26368	0.02794
369.85993	2.26149	0.02656
370.52526	2.2593	0.02522
371.1906	2.2571	0.02391
371.85593	2.2549	0.02264
372.52126	2.25269	0.02139
373.18659	2.25049	0.02018
373.85193	2.24828	0.01901
374.51726	2.24607	0.01786
375.18259	2.24385	0.01675
375.84792	2.24164	0.01567
376.51326	2.23943	0.01463
377.17859	2.23721	0.01362
377.84392	2.235	0.01265
378.50925	2.23279	0.01171
379.17459	2.23059	0.01081
379.83992	2.22838	0.00994
380.50525	2.22618	0.00911
381.17059	2.22399	0.00831
381.83592	2.2218	0.00755
382.50125	2.21961	0.00683
383.16658	2.21744	0.00614
383.83192	2.21527	0.00549
384.49725	2.21311	0.00487
385.16258	2.21096	0.0043
385.82791	2.20882	0.00376
386.49325	2.20669	0.00326
387.15858	2.20458	0.00279
387.82391	2.20248	0.00237
388.48924	2.20039	0.00198
389.15458	2.19833	0.00163
389.81991	2.19628	0.00132
390.48524	2.19426	0.00105
391.15058	2.19225	8.2E-4
391.81591	2.19028	6.2E-4
392.48124	2.18833	4.7E-4
393.14657	2.18642	3.6E-4
393.81191	2.18454	2.9E-4
394.47724	2.18271	2.6E-4
395.14257	2.18094	2.6E-4
395.8079	2.17923	2.6E-4
396.47324	2.17756	2.6E-4
397.13857	2.17593	2.6E-4
397.8039	2.17433	2.6E-4
398.46923	2.17276	2.6E-4
399.13457	2.17123	2.6E-4
399.7999	2.16971	2.7E-4
400.46523	2.16823	2.7E-4
401.13057	2.16677	2.7E-4
401.7959	2.16533	2.7E-4
402.46123	2.16391	2.7E-4
403.12656	2.16251	2.7E-4
403.7919	2.16114	2.7E-4
404.45723	2.15978	2.8E-4
405.12256	2.15844	2.8E-4
405.78789	2.15712	2.8E-4
406.45323	2.15582	2.8E-4
407.11856	2.15453	2.8E-4
407.78389	2.15326	2.8E-4
408.44922	2.152	2.9E-4
409.11456	2.15076	2.9E-4
409.77989	2.14953	2.9E-4
410.44522	2.14832	2.9E-4
411.11056	2.14712	2.9E-4
411.77589	2.14594	2.9E-4
412.44122	2.14477	3E-4
413.10655	2.14361	3E-4
413.77189	2.14246	3E-4
414.43722	2.14133	3E-4
415.10255	2.14021	3E-4
415.76788	2.1391	3E-4
416.43322	2.138	3E-4
417.09855	2.13691	3.1E-4
417.76388	2.13583	3.1E-4
418.42921	2.13477	3.1E-4
419.09455	2.13371	3.1E-4
419.75988	2.13267	3.1E-4
420.42521	2.13163	3.1E-4
421.09055	2.13061	3.2E-4
421.75588	2.12959	3.2E-4
422.42121	2.12858	3.2E-4
423.08654	2.12758	3.2E-4
423.75188	2.12659	3.2E-4
424.41721	2.12562	3.2E-4
425.08254	2.12464	3.3E-4
425.74787	2.12368	3.3E-4
426.41321	2.12273	3.3E-4
427.07854	2.12178	3.3E-4
427.74387	2.12084	3.3E-4
428.4092	2.11991	3.3E-4
429.07454	2.11899	3.4E-4
429.73987	2.11808	3.4E-4
430.4052	2.11717	3.4E-4
431.07054	2.11627	3.4E-4
431.73587	2.11538	3.4E-4
432.4012	2.11449	3.4E-4
433.06653	2.11361	3.5E-4
433.73187	2.11274	3.5E-4
434.3972	2.11188	3.5E-4
435.06253	2.11102	3.5E-4
435.72786	2.11017	3.5E-4
436.3932	2.10933	3.6E-4
437.05853	2.10849	3.6E-4
437.72386	2.10766	3.6E-4
438.38919	2.10683	3.6E-4
439.05453	2.10601	3.6E-4
439.71986	2.1052	3.6E-4
440.38519	2.10439	3.7E-4
441.05053	2.10359	3.7E-4
441.71586	2.10279	3.7E-4
442.38119	2.102	3.7E-4
443.04652	2.10122	3.7E-4
443.71186	2.10044	3.8E-4
444.37719	2.09967	3.8E-4
445.04252	2.0989	3.8E-4
445.70785	2.09814	3.8E-4
446.37319	2.09738	3.8E-4
447.03852	2.09663	3.8E-4
447.70385	2.09588	3.9E-4
448.36918	2.09514	3.9E-4
449.03452	2.0944	3.9E-4
449.69985	2.09367	3.9E-4
450.36518	2.09295	3.9E-4
451.03052	2.09222	4E-4
451.69585	2.09151	4E-4
452.36118	2.09079	4E-4
453.02651	2.09008	4E-4
453.69185	2.08938	4E-4
454.35718	2.08868	4.1E-4
455.02251	2.08799	4.1E-4
455.68784	2.0873	4.1E-4
456.35318	2.08661	4.1E-4
457.01851	2.08593	4.1E-4
457.68384	2.08525	4.1E-4
458.34917	2.08458	4.2E-4
459.01451	2.08391	4.2E-4
459.67984	2.08324	4.2E-4
460.34517	2.08258	4.2E-4
461.01051	2.08192	4.2E-4
461.67584	2.08127	4.3E-4
462.34117	2.08062	4.3E-4
463.0065	2.07998	4.3E-4
463.67184	2.07933	4.3E-4
464.33717	2.0787	4.3E-4
465.0025	2.07806	4.4E-4
465.66783	2.07743	4.4E-4
466.33317	2.0768	4.4E-4
466.9985	2.07618	4.4E-4
467.66383	2.07556	4.4E-4
468.32916	2.07494	4.5E-4
468.9945	2.07433	4.5E-4
469.65983	2.07372	4.5E-4
470.32516	2.07312	4.5E-4
470.9905	2.07251	4.5E-4
471.65583	2.07191	4.6E-4
472.32116	2.07132	4.6E-4
472.98649	2.07072	4.6E-4
473.65183	2.07013	4.6E-4
474.31716	2.06955	4.7E-4
474.98249	2.06896	4.7E-4
475.64782	2.06838	4.7E-4
476.31316	2.06781	4.7E-4
476.97849	2.06723	4.7E-4
477.64382	2.06666	4.8E-4
478.30915	2.06609	4.8E-4
478.97449	2.06553	4.8E-4
479.63982	2.06497	4.8E-4
480.30515	2.06441	4.8E-4
480.97049	2.06385	4.9E-4
481.63582	2.0633	4.9E-4
482.30115	2.06274	4.9E-4
482.96648	2.0622	4.9E-4
483.63182	2.06165	4.9E-4
484.29715	2.06111	5E-4
484.96248	2.06057	5E-4
485.62781	2.06003	5E-4
486.29315	2.05949	5E-4
486.95848	2.05896	5.1E-4
487.62381	2.05843	5.1E-4
488.28914	2.05791	5.1E-4
488.95448	2.05738	5.1E-4
489.61981	2.05686	5.1E-4
490.28514	2.05634	5.2E-4
490.95048	2.05582	5.2E-4
491.61581	2.05531	5.2E-4
492.28114	2.0548	5.2E-4
492.94647	2.05429	5.3E-4
493.61181	2.05378	5.3E-4
494.27714	2.05327	5.3E-4
494.94247	2.05277	5.3E-4
495.6078	2.05227	5.4E-4
496.27314	2.05177	5.4E-4
496.93847	2.05128	5.4E-4
497.6038	2.05078	5.4E-4
498.26913	2.05029	5.4E-4
498.93447	2.0498	5.5E-4
499.5998	2.04931	5.5E-4
500.26513	2.04883	5.5E-4
500.93047	2.04834	5.5E-4
501.5958	2.04786	5.6E-4
502.26113	2.04739	5.6E-4
502.92646	2.04691	5.6E-4
503.5918	2.04643	5.6E-4
504.25713	2.04596	5.7E-4
504.92246	2.04549	5.7E-4
505.58779	2.04502	5.7E-4
506.25313	2.04456	5.7E-4
506.91846	2.04409	5.7E-4
507.58379	2.04363	5.8E-4
508.24912	2.04317	5.8E-4
508.91446	2.04271	5.8E-4
509.57979	2.04225	5.8E-4
510.24512	2.0418	5.9E-4
510.91046	2.04134	5.9E-4
511.57579	2.04089	5.9E-4
512.24112	2.04044	5.9E-4
512.90645	2.03999	6E-4
513.57179	2.03955	6E-4
514.23712	2.0391	6E-4
514.90245	2.03866	6E-4
515.56778	2.03822	6.1E-4
516.23312	2.03778	6.1E-4
516.89845	2.03735	6.1E-4
517.56378	2.03691	6.1E-4
518.22911	2.03648	6.2E-4
518.89445	2.03604	6.2E-4
519.55978	2.03561	6.2E-4
520.22511	2.03518	6.2E-4
520.89045	2.03476	6.3E-4
521.55578	2.03433	6.3E-4
522.22111	2.03391	6.3E-4
522.88644	2.03349	6.3E-4
523.55178	2.03306	6.4E-4
524.21711	2.03265	6.4E-4
524.88244	2.03223	6.4E-4
525.54777	2.03181	6.4E-4
526.21311	2.0314	6.5E-4
526.87844	2.03098	6.5E-4
527.54377	2.03057	6.5E-4
528.2091	2.03016	6.5E-4
528.87444	2.02975	6.6E-4
529.53977	2.02935	6.6E-4
530.2051	2.02894	6.6E-4
530.87044	2.02854	6.7E-4
531.53577	2.02813	6.7E-4
532.2011	2.02773	6.7E-4
532.86643	2.02733	6.7E-4
533.53177	2.02693	6.8E-4
534.1971	2.02654	6.8E-4
534.86243	2.02614	6.8E-4
535.52776	2.02575	6.8E-4
536.1931	2.02535	6.9E-4
536.85843	2.02496	6.9E-4
537.52376	2.02457	6.9E-4
538.18909	2.02418	6.9E-4
538.85443	2.02379	7E-4
539.51976	2.02341	7E-4
540.18509	2.02302	7E-4
540.85043	2.02264	7.1E-4
541.51576	2.02225	7.1E-4
542.18109	2.02187	7.1E-4
542.84642	2.02149	7.1E-4
543.51176	2.02111	7.2E-4
544.17709	2.02074	7.2E-4
544.84242	2.02036	7.2E-4
545.50775	2.01998	7.2E-4
546.17309	2.01961	7.3E-4
546.83842	2.01924	7.3E-4
547.50375	2.01886	7.3E-4
548.16908	2.01849	7.4E-4
548.83442	2.01812	7.4E-4
549.49975	2.01776	7.4E-4
550.16508	2.01739	7.4E-4
550.83042	2.01702	7.5E-4
551.49575	2.01666	7.5E-4
552.16108	2.01629	7.5E-4
552.82641	2.01593	7.6E-4
553.49175	2.01557	7.6E-4
554.15708	2.01521	7.6E-4
554.82241	2.01485	7.6E-4
555.48774	2.01449	7.7E-4
556.15308	2.01413	7.7E-4
556.81841	2.01378	7.7E-4
557.48374	2.01342	7.8E-4
558.14907	2.01307	7.8E-4
558.81441	2.01272	7.8E-4
559.47974	2.01236	7.8E-4
560.14507	2.01201	7.9E-4
560.81041	2.01166	7.9E-4
561.47574	2.01131	7.9E-4
562.14107	2.01096	8E-4
562.8064	2.01062	8E-4
563.47174	2.01027	8E-4
564.13707	2.00993	8.1E-4
564.8024	2.00958	8.1E-4
565.46773	2.00924	8.1E-4
566.13307	2.0089	8.1E-4
566.7984	2.00856	8.2E-4
567.46373	2.00821	8.2E-4
568.12906	2.00788	8.2E-4
568.7944	2.00754	8.3E-4
569.45973	2.0072	8.3E-4
570.12506	2.00686	8.3E-4
570.7904	2.00653	8.4E-4
571.45573	2.00619	8.4E-4
572.12106	2.00586	8.4E-4
572.78639	2.00552	8.5E-4
573.45173	2.00519	8.5E-4
574.11706	2.00486	8.5E-4
574.78239	2.00453	8.5E-4
575.44772	2.0042	8.6E-4
576.11306	2.00387	8.6E-4
576.77839	2.00354	8.6E-4
577.44372	2.00322	8.7E-4
578.10905	2.00289	8.7E-4
578.77439	2.00257	8.7E-4
579.43972	2.00224	8.8E-4
580.10505	2.00192	8.8E-4
580.77039	2.00159	8.8E-4
581.43572	2.00127	8.9E-4
582.10105	2.00095	8.9E-4
582.76638	2.00063	8.9E-4
583.43172	2.00031	9E-4
584.09705	1.99999	9E-4
584.76238	1.99967	9E-4
585.42771	1.99935	9.1E-4
586.09305	1.99904	9.1E-4
586.75838	1.99872	9.1E-4
587.42371	1.99841	9.1E-4
588.08904	1.99809	9.2E-4
588.75438	1.99778	9.2E-4
589.41971	1.99746	9.2E-4
590.08504	1.99715	9.3E-4
590.75038	1.99684	9.3E-4
591.41571	1.99653	9.3E-4
592.08104	1.99622	9.4E-4
592.74637	1.99591	9.4E-4
593.41171	1.9956	9.4E-4
594.07704	1.99529	9.5E-4
594.74237	1.99499	9.5E-4
595.4077	1.99468	9.5E-4
596.07304	1.99437	9.6E-4
596.73837	1.99407	9.6E-4
597.4037	1.99376	9.6E-4
598.06903	1.99346	9.7E-4
598.73437	1.99316	9.7E-4
599.3997	1.99285	9.7E-4
600.06503	1.99255	9.8E-4
600.73037	1.99225	9.8E-4
601.3957	1.99195	9.8E-4
602.06103	1.99165	9.9E-4
602.72636	1.99135	9.9E-4
603.3917	1.99105	0.001
604.05703	1.99075	0.001
604.72236	1.99046	0.001
605.38769	1.99016	0.00101
606.05303	1.98986	0.00101
606.71836	1.98957	0.00101
607.38369	1.98927	0.00102
608.04902	1.98898	0.00102
608.71436	1.98868	0.00102
609.37969	1.98839	0.00103
610.04502	1.9881	0.00103
610.71036	1.98781	0.00103
611.37569	1.98751	0.00104
612.04102	1.98722	0.00104
612.70635	1.98693	0.00104
613.37169	1.98664	0.00105
614.03702	1.98635	0.00105
614.70235	1.98607	0.00105
615.36768	1.98578	0.00106
616.03302	1.98549	0.00106
616.69835	1.9852	0.00107
617.36368	1.98492	0.00107
618.02901	1.98463	0.00107
618.69435	1.98434	0.00108
619.35968	1.98406	0.00108
620.02501	1.98378	0.00108
620.69035	1.98349	0.00109
621.35568	1.98321	0.00109
622.02101	1.98293	0.00109
622.68634	1.98264	0.0011
623.35168	1.98236	0.0011
624.01701	1.98208	0.00111
624.68234	1.9818	0.00111
625.34767	1.98152	0.00111
626.01301	1.98124	0.00112
626.67834	1.98096	0.00112
627.34367	1.98068	0.00112
628.009	1.9804	0.00113
628.67434	1.98013	0.00113
629.33967	1.97985	0.00114
630.005	1.97957	0.00114
630.67034	1.9793	0.00114
631.33567	1.97902	0.00115
632.001	1.97874	0.00115
632.66633	1.97847	0.00115
633.33167	1.9782	0.00116
633.997	1.97792	0.00116
634.66233	1.97765	0.00117
635.32766	1.97738	0.00117
635.993	1.9771	0.00117
636.65833	1.97683	0.00118
637.32366	1.97656	0.00118
637.98899	1.97629	0.00119
638.65433	1.97602	0.00119
639.31966	1.97575	0.00119
639.98499	1.97548	0.0012
640.65033	1.97521	0.0012
641.31566	1.97494	0.0012
641.98099	1.97467	0.00121
642.64632	1.9744	0.00121
643.31166	1.97413	0.00122
643.97699	1.97386	0.00122
644.64232	1.9736	0.00122
645.30765	1.97333	0.00123
645.97299	1.97307	0.00123
646.63832	1.9728	0.00124
647.30365	1.97253	0.00124
647.96898	1.97227	0.00124
648.63432	1.972	0.00125
649.29965	1.97174	0.00125
649.96498	1.97148	0.00126
650.63032	1.97121	0.00126
651.29565	1.97095	0.00126
651.96098	1.97069	0.00127
652.62631	1.97042	0.00127
653.29165	1.97016	0.00128
653.95698	1.9699	0.00128
654.62231	1.96964	0.00128
655.28764	1.96938	0.00129
655.95298	1.96912	0.00129
656.61831	1.96886	0.0013
657.28364	1.9686	0.0013
657.94897	1.96834	0.00131
658.61431	1.96808	0.00131
659.27964	1.96782	0.00131
659.94497	1.96756	0.00132
660.61031	1.9673	0.00132
661.27564	1.96705	0.00133
661.94097	1.96679	0.00133
662.6063	1.96653	0.00133
663.27164	1.96628	0.00134
663.93697	1.96602	0.00134
664.6023	1.96576	0.00135
665.26763	1.96551	0.00135
665.93297	1.96525	0.00136
666.5983	1.965	0.00136
667.26363	1.96474	0.00136
667.92896	1.96449	0.00137
668.5943	1.96423	0.00137
669.25963	1.96398	0.00138
669.92496	1.96373	0.00138
670.5903	1.96347	0.00139
671.25563	1.96322	0.00139
671.92096	1.96297	0.00139
672.58629	1.96272	0.0014
673.25163	1.96246	0.0014
673.91696	1.96221	0.00141
674.58229	1.96196	0.00141
675.24762	1.96171	0.00142
675.91296	1.96146	0.00142
676.57829	1.96121	0.00142
677.24362	1.96096	0.00143
677.90895	1.96071	0.00143
678.57429	1.96046	0.00144
679.23962	1.96021	0.00144
679.90495	1.95996	0.00145
680.57029	1.95971	0.00145
681.23562	1.95947	0.00146
681.90095	1.95922	0.00146
682.56628	1.95897	0.00146
683.23162	1.95872	0.00147
683.89695	1.95847	0.00147
684.56228	1.95823	0.00148
685.22761	1.95798	0.00148
685.89295	1.95773	0.00149
686.55828	1.95749	0.00149
687.22361	1.95724	0.0015
687.88894	1.957	0.0015
688.55428	1.95675	0.0015
689.21961	1.95651	0.00151
689.88494	1.95626	0.00151
690.55028	1.95602	0.00152
691.21561	1.95577	0.00152
691.88094	1.95553	0.00153
692.54627	1.95528	0.00153
693.21161	1.95504	0.00154
693.87694	1.9548	0.00154
694.54227	1.95455	0.00155
695.2076	1.95431	0.00155
695.87294	1.95407	0.00156
696.53827	1.95382	0.00156
697.2036	1.95358	0.00156
697.86893	1.95334	0.00157
698.53427	1.9531	0.00157
699.1996	1.95286	0.00158
699.86493	1.95262	0.00158
700.53027	1.95237	0.00159
701.1956	1.95213	0.00159
701.86093	1.95189	0.0016
702.52626	1.95165	0.0016
703.1916	1.95141	0.00161
703.85693	1.95117	0.00161
704.52226	1.95093	0.00162
705.18759	1.95069	0.00162
705.85293	1.95045	0.00163
706.51826	1.95021	0.00163
707.18359	1.94997	0.00164
707.84892	1.94974	0.00164
708.51426	1.9495	0.00165
709.17959	1.94926	0.00165
709.84492	1.94902	0.00165
710.51026	1.94878	0.00166
711.17559	1.94854	0.00166
711.84092	1.94831	0.00167
712.50625	1.94807	0.00167
713.17159	1.94783	0.00168
713.83692	1.9476	0.00168
714.50225	1.94736	0.00169
715.16758	1.94712	0.00169
715.83292	1.94689	0.0017
716.49825	1.94665	0.0017
717.16358	1.94641	0.00171
717.82891	1.94618	0.00171
718.49425	1.94594	0.00172
719.15958	1.94571	0.00172
719.82491	1.94547	0.00173
720.49025	1.94524	0.00173
721.15558	1.945	0.00174
721.82091	1.94477	0.00174
722.48624	1.94453	0.00175
723.15158	1.9443	0.00175
723.81691	1.94406	0.00176
724.48224	1.94383	0.00176
725.14757	1.94359	0.00177
725.81291	1.94336	0.00177
726.47824	1.94313	0.00178
727.14357	1.94289	0.00178
727.8089	1.94266	0.00179
728.47424	1.94243	0.00179
729.13957	1.94219	0.0018
729.8049	1.94196	0.0018
730.47024	1.94173	0.00181
731.13557	1.9415	0.00182
731.8009	1.94126	0.00182
732.46623	1.94103	0.00183
733.13157	1.9408	0.00183
733.7969	1.94057	0.00184
734.46223	1.94034	0.00184
735.12756	1.94011	0.00185
735.7929	1.93987	0.00185
736.45823	1.93964	0.00186
737.12356	1.93941	0.00186
737.78889	1.93918	0.00187
738.45423	1.93895	0.00187
739.11956	1.93872	0.00188
739.78489	1.93849	0.00188
740.45023	1.93826	0.00189
741.11556	1.93803	0.00189
741.78089	1.9378	0.0019
742.44622	1.93757	0.0019
743.11156	1.93734	0.00191
743.77689	1.93711	0.00192
744.44222	1.93688	0.00192
745.10755	1.93665	0.00193
745.77289	1.93642	0.00193
746.43822	1.93619	0.00194
747.10355	1.93596	0.00194
747.76888	1.93573	0.00195
748.43422	1.9355	0.00195
749.09955	1.93528	0.00196
749.76488	1.93505	0.00196
750.43022	1.93482	0.00197
751.09555	1.93459	0.00198
751.76088	1.93436	0.00198
752.42621	1.93413	0.00199
753.09155	1.93391	0.00199
753.75688	1.93368	0.002
754.42221	1.93345	0.002
755.08754	1.93322	0.00201
755.75288	1.93299	0.00201
756.41821	1.93277	0.00202
757.08354	1.93254	0.00202
757.74887	1.93231	0.00203
758.41421	1.93209	0.00204
759.07954	1.93186	0.00204
759.74487	1.93163	0.00205
760.41021	1.93141	0.00205
761.07554	1.93118	0.00206
761.74087	1.93095	0.00206
762.4062	1.93073	0.00207
763.07154	1.9305	0.00208
763.73687	1.93027	0.00208
764.4022	1.93005	0.00209
765.06753	1.92982	0.00209
765.73287	1.9296	0.0021
766.3982	1.92937	0.0021
767.06353	1.92914	0.00211
767.72886	1.92892	0.00212
768.3942	1.92869	0.00212
769.05953	1.92847	0.00213
769.72486	1.92824	0.00213
770.3902	1.92802	0.00214
771.05553	1.92779	0.00214
771.72086	1.92757	0.00215
772.38619	1.92734	0.00216
773.05153	1.92712	0.00216
773.71686	1.92689	0.00217
774.38219	1.92667	0.00217
775.04752	1.92644	0.00218
775.71286	1.92622	0.00219
776.37819	1.92599	0.00219
777.04352	1.92577	0.0022
777.70885	1.92554	0.0022
778.37419	1.92532	0.00221
779.03952	1.9251	0.00221
779.70485	1.92487	0.00222
780.37019	1.92465	0.00223
781.03552	1.92442	0.00223
781.70085	1.9242	0.00224
782.36618	1.92398	0.00224
783.03152	1.92375	0.00225
783.69685	1.92353	0.00226
784.36218	1.92331	0.00226
785.02751	1.92308	0.00227
785.69285	1.92286	0.00227
786.35818	1.92263	0.00228
787.02351	1.92241	0.00229
787.68884	1.92219	0.00229
788.35418	1.92197	0.0023
789.01951	1.92174	0.0023
789.68484	1.92152	0.00231
790.35018	1.9213	0.00232
791.01551	1.92107	0.00232
791.68084	1.92085	0.00233
792.34617	1.92063	0.00234
793.01151	1.92041	0.00234
793.67684	1.92018	0.00235
794.34217	1.91996	0.00235
795.0075	1.91974	0.00236
795.67284	1.91951	0.00237
796.33817	1.91929	0.00237
797.0035	1.91907	0.00238
797.66883	1.91885	0.00238
798.33417	1.91863	0.00239
798.9995	1.9184	0.0024
799.66483	1.91818	0.0024
800.33017	1.91796	0.00241
800.9955	1.91774	0.00242
801.66083	1.91752	0.00242
802.32616	1.91729	0.00243
802.9915	1.91707	0.00244
803.65683	1.91685	0.00244
804.32216	1.91663	0.00245
804.98749	1.91641	0.00245
805.65283	1.91618	0.00246
806.31816	1.91596	0.00247
806.98349	1.91574	0.00247
807.64882	1.91552	0.00248
808.31416	1.9153	0.00249
808.97949	1.91508	0.00249
809.64482	1.91486	0.0025
810.31016	1.91463	0.00251
810.97549	1.91441	0.00251
811.64082	1.91419	0.00252
812.30615	1.91397	0.00252
812.97149	1.91375	0.00253
813.63682	1.91353	0.00254
814.30215	1.91331	0.00254
814.96748	1.91309	0.00255
815.63282	1.91286	0.00256
816.29815	1.91264	0.00256
816.96348	1.91242	0.00257
817.62881	1.9122	0.00258
818.29415	1.91198	0.00258
818.95948	1.91176	0.00259
819.62481	1.91154	0.0026
820.29015	1.91132	0.0026
820.95548	1.9111	0.00261
821.62081	1.91088	0.00262
822.28614	1.91066	0.00262
822.95148	1.91043	0.00263
823.61681	1.91021	0.00264
824.28214	1.90999	0.00264
824.94747	1.90977	0.00265
825.61281	1.90955	0.00266
826.27814	1.90933	0.00266
826.94347	1.90911	0.00267
827.6088	1.90889	0.00268
828.27414	1.90867	0.00268
828.93947	1.90845	0.00269
829.6048	1.90823	0.0027
830.27014	1.90801	0.0027
830.93547	1.90779	0.00271
831.6008	1.90757	0.00272
832.26613	1.90735	0.00273
832.93147	1.90713	0.00273
833.5968	1.90691	0.00274
834.26213	1.90669	0.00275
834.92746	1.90647	0.00275
835.5928	1.90625	0.00276
836.25813	1.90603	0.00277
836.92346	1.90581	0.00277
837.58879	1.90559	0.00278
838.25413	1.90536	0.00279
838.91946	1.90514	0.00279
839.58479	1.90492	0.0028
840.25013	1.9047	0.00281
840.91546	1.90448	0.00282
841.58079	1.90426	0.00282
842.24612	1.90404	0.00283
842.91146	1.90382	0.00284
843.57679	1.9036	0.00284
844.24212	1.90338	0.00285
844.90745	1.90316	0.00286
845.57279	1.90294	0.00286
846.23812	1.90272	0.00287
846.90345	1.9025	0.00288
847.56878	1.90228	0.00289
848.23412	1.90206	0.00289
848.89945	1.90184	0.0029
849.56478	1.90162	0.00291
850.23012	1.9014	0.00291
850.89545	1.90118	0.00292
851.56078	1.90096	0.00293
852.22611	1.90074	0.00294
852.89145	1.90052	0.00294
853.55678	1.9003	0.00295
854.22211	1.90008	0.00296
854.88744	1.89986	0.00296
855.55278	1.89964	0.00297
856.21811	1.89942	0.00298
856.88344	1.8992	0.00299
857.54877	1.89898	0.00299
858.21411	1.89876	0.003
858.87944	1.89854	0.00301
859.54477	1.89832	0.00302
860.21011	1.8981	0.00302
860.87544	1.89788	0.00303
861.54077	1.89766	0.00304
862.2061	1.89744	0.00305
862.87144	1.89722	0.00305
863.53677	1.897	0.00306
864.2021	1.89678	0.00307
864.86743	1.89656	0.00308
865.53277	1.89634	0.00308
866.1981	1.89612	0.00309
866.86343	1.8959	0.0031
867.52876	1.89568	0.00311
868.1941	1.89546	0.00311
868.85943	1.89524	0.00312
869.52476	1.89502	0.00313
870.1901	1.8948	0.00314
870.85543	1.89458	0.00314
871.52076	1.89436	0.00315
872.18609	1.89414	0.00316
872.85143	1.89392	0.00317
873.51676	1.8937	0.00317
874.18209	1.89348	0.00318
874.84742	1.89326	0.00319
875.51276	1.89304	0.0032
876.17809	1.89282	0.0032
876.84342	1.8926	0.00321
877.50875	1.89238	0.00322
878.17409	1.89216	0.00323
878.83942	1.89194	0.00323
879.50475	1.89172	0.00324
880.17009	1.8915	0.00325
880.83542	1.89127	0.00326
881.50075	1.89105	0.00327
882.16608	1.89083	0.00327
882.83142	1.89061	0.00328
883.49675	1.89039	0.00329
884.16208	1.89017	0.0033
884.82741	1.88995	0.0033
885.49275	1.88973	0.00331
886.15808	1.88951	0.00332
886.82341	1.88929	0.00333
887.48874	1.88907	0.00334
888.15408	1.88885	0.00334
888.81941	1.88863	0.00335
889.48474	1.88841	0.00336
890.15008	1.88819	0.00337
890.81541	1.88797	0.00338
891.48074	1.88774	0.00338
892.14607	1.88752	0.00339
892.81141	1.8873	0.0034
893.47674	1.88708	0.00341
894.14207	1.88686	0.00342
894.8074	1.88664	0.00342
895.47274	1.88642	0.00343
896.13807	1.8862	0.00344
896.8034	1.88598	0.00345
897.46873	1.88576	0.00346
898.13407	1.88554	0.00346
898.7994	1.88531	0.00347
899.46473	1.88509	0.00348
900.13007	1.88487	0.00349
900.7954	1.88465	0.0035
901.46073	1.88443	0.0035
902.12606	1.88421	0.00351
902.7914	1.88399	0.00352
903.45673	1.88377	0.00353
904.12206	1.88354	0.00354
904.78739	1.88332	0.00355
905.45273	1.8831	0.00355
906.11806	1.88288	0.00356
906.78339	1.88266	0.00357
907.44872	1.88244	0.00358
908.11406	1.88222	0.00359
908.77939	1.88199	0.0036
909.44472	1.88177	0.0036
910.11006	1.88155	0.00361
910.77539	1.88133	0.00362
911.44072	1.88111	0.00363
912.10605	1.88088	0.00364
912.77139	1.88066	0.00365
913.43672	1.88044	0.00365
914.10205	1.88022	0.00366
914.76738	1.88	0.00367
915.43272	1.87977	0.00368
916.09805	1.87955	0.00369
916.76338	1.87933	0.0037
917.42871	1.87911	0.0037
918.09405	1.87889	0.00371
918.75938	1.87866	0.00372
919.42471	1.87844	0.00373
920.09005	1.87822	0.00374
920.75538	1.878	0.00375
921.42071	1.87777	0.00376
922.08604	1.87755	0.00376
922.75138	1.87733	0.00377
923.41671	1.87711	0.00378
924.08204	1.87688	0.00379
924.74737	1.87666	0.0038
925.41271	1.87644	0.00381
926.07804	1.87622	0.00382
926.74337	1.87599	0.00382
927.4087	1.87577	0.00383
928.07404	1.87555	0.00384
928.73937	1.87533	0.00385
929.4047	1.8751	0.00386
930.07004	1.87488	0.00387
930.73537	1.87466	0.00388
931.4007	1.87443	0.00389
932.06603	1.87421	0.00389
932.73137	1.87399	0.0039
933.3967	1.87376	0.00391
934.06203	1.87354	0.00392
934.72736	1.87332	0.00393
935.3927	1.87309	0.00394
936.05803	1.87287	0.00395
936.72336	1.87265	0.00396
937.38869	1.87242	0.00397
938.05403	1.8722	0.00397
938.71936	1.87198	0.00398
939.38469	1.87175	0.00399
940.05003	1.87153	0.004
940.71536	1.8713	0.00401
941.38069	1.87108	0.00402
942.04602	1.87086	0.00403
942.71136	1.87063	0.00404
943.37669	1.87041	0.00405
944.04202	1.87018	0.00406
944.70735	1.86996	0.00406
945.37269	1.86974	0.00407
946.03802	1.86951	0.00408
946.70335	1.86929	0.00409
947.36868	1.86906	0.0041
948.03402	1.86884	0.00411
948.69935	1.86861	0.00412
949.36468	1.86839	0.00413
950.03002	1.86816	0.00414
950.69535	1.86794	0.00415
951.36068	1.86771	0.00416
952.02601	1.86749	0.00416
952.69135	1.86727	0.00417
953.35668	1.86704	0.00418
954.02201	1.86682	0.00419
954.68734	1.86659	0.0042
955.35268	1.86637	0.00421
956.01801	1.86614	0.00422
956.68334	1.86591	0.00423
957.34867	1.86569	0.00424
958.01401	1.86546	0.00425
958.67934	1.86524	0.00426
959.34467	1.86501	0.00427
960.01001	1.86479	0.00428
960.67534	1.86456	0.00429
961.34067	1.86434	0.0043
962.006	1.86411	0.0043
962.67134	1.86388	0.00431
963.33667	1.86366	0.00432
964.002	1.86343	0.00433
964.66733	1.86321	0.00434
965.33267	1.86298	0.00435
965.998	1.86275	0.00436
966.66333	1.86253	0.00437
967.32866	1.8623	0.00438
967.994	1.86208	0.00439
968.65933	1.86185	0.0044
969.32466	1.86162	0.00441
969.98999	1.8614	0.00442
970.65533	1.86117	0.00443
971.32066	1.86094	0.00444
971.98599	1.86072	0.00445
972.65133	1.86049	0.00446
973.31666	1.86026	0.00447
973.98199	1.86004	0.00448
974.64732	1.85981	0.00449
975.31266	1.85958	0.0045
975.97799	1.85935	0.00451
976.64332	1.85913	0.00452
977.30865	1.8589	0.00453
977.97399	1.85867	0.00454
978.63932	1.85844	0.00455
979.30465	1.85822	0.00456
979.96998	1.85799	0.00457
980.63532	1.85776	0.00458
981.30065	1.85753	0.00459
981.96598	1.85731	0.0046
982.63132	1.85708	0.00461
983.29665	1.85685	0.00461
983.96198	1.85662	0.00462
984.62731	1.85639	0.00463
985.29265	1.85617	0.00464
985.95798	1.85594	0.00465
986.62331	1.85571	0.00466
987.28864	1.85548	0.00467
987.95398	1.85525	0.00468
988.61931	1.85502	0.00469
989.28464	1.8548	0.0047
989.94997	1.85457	0.00471
990.61531	1.85434	0.00473
991.28064	1.85411	0.00474
991.94597	1.85388	0.00475
992.61131	1.85365	0.00476
993.27664	1.85342	0.00477
993.94197	1.85319	0.00478
994.6073	1.85296	0.00479
995.27264	1.85273	0.0048
995.93797	1.85251	0.00481
996.6033	1.85228	0.00482
997.26863	1.85205	0.00483
997.93397	1.85182	0.00484
998.5993	1.85159	0.00485
999.26463	1.85136	0.00486
999.92996	1.85113	0.00487
1000.5953	1.8509	0.00488
1001.26063	1.85067	0.00489
1001.92596	1.85044	0.0049
1002.5913	1.85021	0.00491
1003.25663	1.84998	0.00492
1003.92196	1.84975	0.00493
1004.58729	1.84952	0.00494
1005.25263	1.84928	0.00495
1005.91796	1.84905	0.00496
1006.58329	1.84882	0.00497
1007.24862	1.84859	0.00498
1007.91396	1.84836	0.00499
1008.57929	1.84813	0.005
1009.24462	1.8479	0.00501
1009.90995	1.84767	0.00502
1010.57529	1.84744	0.00503
1011.24062	1.84721	0.00505
1011.90595	1.84698	0.00506
1012.57129	1.84674	0.00507
1013.23662	1.84651	0.00508
1013.90195	1.84628	0.00509
1014.56728	1.84605	0.0051
1015.23262	1.84582	0.00511
1015.89795	1.84558	0.00512
1016.56328	1.84535	0.00513
1017.22861	1.84512	0.00514
1017.89395	1.84489	0.00515
1018.55928	1.84466	0.00516
1019.22461	1.84442	0.00517
1019.88994	1.84419	0.00518
1020.55528	1.84396	0.0052
1021.22061	1.84373	0.00521
1021.88594	1.84349	0.00522
1022.55128	1.84326	0.00523
1023.21661	1.84303	0.00524
1023.88194	1.8428	0.00525
1024.54727	1.84256	0.00526
1025.21261	1.84233	0.00527
1025.87794	1.8421	0.00528
1026.54327	1.84186	0.00529
1027.2086	1.84163	0.0053
1027.87394	1.8414	0.00532
1028.53927	1.84116	0.00533
1029.2046	1.84093	0.00534
1029.86993	1.8407	0.00535
1030.53527	1.84046	0.00536
1031.2006	1.84023	0.00537
1031.86593	1.83999	0.00538
1032.53127	1.83976	0.00539
1033.1966	1.83953	0.0054
1033.86193	1.83929	0.00541
1034.52726	1.83906	0.00543
1035.1926	1.83882	0.00544
1035.85793	1.83859	0.00545
1036.52326	1.83835	0.00546
1037.18859	1.83812	0.00547
1037.85393	1.83788	0.00548
1038.51926	1.83765	0.00549
1039.18459	1.83741	0.0055
1039.84992	1.83718	0.00552
1040.51526	1.83694	0.00553
1041.18059	1.83671	0.00554
1041.84592	1.83647	0.00555
1042.51126	1.83624	0.00556
1043.17659	1.836	0.00557
1043.84192	1.83577	0.00558
1044.50725	1.83553	0.0056
1045.17259	1.83529	0.00561
1045.83792	1.83506	0.00562
1046.50325	1.83482	0.00563
1047.16858	1.83459	0.00564
1047.83392	1.83435	0.00565
1048.49925	1.83411	0.00566
1049.16458	1.83388	0.00568
1049.82991	1.83364	0.00569
1050.49525	1.8334	0.0057
1051.16058	1.83317	0.00571
1051.82591	1.83293	0.00572
1052.49125	1.83269	0.00573
1053.15658	1.83246	0.00574
1053.82191	1.83222	0.00576
1054.48724	1.83198	0.00577
1055.15258	1.83174	0.00578
1055.81791	1.83151	0.00579
1056.48324	1.83127	0.0058
1057.14857	1.83103	0.00581
1057.81391	1.83079	0.00583
1058.47924	1.83056	0.00584
1059.14457	1.83032	0.00585
1059.8099	1.83008	0.00586
1060.47524	1.82984	0.00587
1061.14057	1.8296	0.00589
1061.8059	1.82936	0.0059
1062.47124	1.82913	0.00591
1063.13657	1.82889	0.00592
1063.8019	1.82865	0.00593
1064.46723	1.82841	0.00594
1065.13257	1.82817	0.00596
1065.7979	1.82793	0.00597
1066.46323	1.82769	0.00598
1067.12856	1.82745	0.00599
1067.7939	1.82721	0.006
1068.45923	1.82698	0.00602
1069.12456	1.82674	0.00603
1069.78989	1.8265	0.00604
1070.45523	1.82626	0.00605
1071.12056	1.82602	0.00606
1071.78589	1.82578	0.00608
1072.45123	1.82554	0.00609
1073.11656	1.8253	0.0061
1073.78189	1.82506	0.00611
1074.44722	1.82482	0.00613
1075.11256	1.82458	0.00614
1075.77789	1.82434	0.00615
1076.44322	1.82409	0.00616
1077.10855	1.82385	0.00617
1077.77389	1.82361	0.00619
1078.43922	1.82337	0.0062
1079.10455	1.82313	0.00621
1079.76988	1.82289	0.00622
1080.43522	1.82265	0.00624
1081.10055	1.82241	0.00625
1081.76588	1.82217	0.00626
1082.43122	1.82192	0.00627
1083.09655	1.82168	0.00629
1083.76188	1.82144	0.0063
1084.42721	1.8212	0.00631
1085.09255	1.82096	0.00632
1085.75788	1.82071	0.00633
1086.42321	1.82047	0.00635
1087.08854	1.82023	0.00636
1087.75388	1.81999	0.00637
1088.41921	1.81975	0.00639
1089.08454	1.8195	0.0064
1089.74987	1.81926	0.00641
1090.41521	1.81902	0.00642
1091.08054	1.81877	0.00644
1091.74587	1.81853	0.00645
1092.41121	1.81829	0.00646
1093.07654	1.81804	0.00647
1093.74187	1.8178	0.00649
1094.4072	1.81756	0.0065
1095.07254	1.81731	0.00651
1095.73787	1.81707	0.00652
1096.4032	1.81683	0.00654
1097.06853	1.81658	0.00655
1097.73387	1.81634	0.00656
1098.3992	1.81609	0.00658
1099.06453	1.81585	0.00659
1099.72986	1.81561	0.0066
1100.3952	1.81536	0.00661
1101.06053	1.81512	0.00663
1101.72586	1.81487	0.00664
1102.3912	1.81463	0.00665
1103.05653	1.81438	0.00667
1103.72186	1.81414	0.00668
1104.38719	1.81389	0.00669
1105.05253	1.81365	0.0067
1105.71786	1.8134	0.00672
1106.38319	1.81315	0.00673
1107.04852	1.81291	0.00674
1107.71386	1.81266	0.00676
1108.37919	1.81242	0.00677
1109.04452	1.81217	0.00678
1109.70985	1.81193	0.0068
1110.37519	1.81168	0.00681
1111.04052	1.81143	0.00682
1111.70585	1.81119	0.00684
1112.37119	1.81094	0.00685
1113.03652	1.81069	0.00686
1113.70185	1.81045	0.00688
1114.36718	1.8102	0.00689
1115.03252	1.80995	0.0069
1115.69785	1.8097	0.00691
1116.36318	1.80946	0.00693
1117.02851	1.80921	0.00694
1117.69385	1.80896	0.00695
1118.35918	1.80871	0.00697
1119.02451	1.80847	0.00698
1119.68984	1.80822	0.007
1120.35518	1.80797	0.00701
1121.02051	1.80772	0.00702
1121.68584	1.80748	0.00704
1122.35118	1.80723	0.00705
1123.01651	1.80698	0.00706
1123.68184	1.80673	0.00708
1124.34717	1.80648	0.00709
1125.01251	1.80623	0.0071
1125.67784	1.80598	0.00712
1126.34317	1.80573	0.00713
1127.0085	1.80549	0.00714
1127.67384	1.80524	0.00716
1128.33917	1.80499	0.00717
1129.0045	1.80474	0.00718
1129.66983	1.80449	0.0072
1130.33517	1.80424	0.00721
1131.0005	1.80399	0.00723
1131.66583	1.80374	0.00724
1132.33117	1.80349	0.00725
1132.9965	1.80324	0.00727
1133.66183	1.80299	0.00728
1134.32716	1.80274	0.00729
1134.9925	1.80249	0.00731
1135.65783	1.80224	0.00732
1136.32316	1.80198	0.00734
1136.98849	1.80173	0.00735
1137.65383	1.80148	0.00736
1138.31916	1.80123	0.00738
1138.98449	1.80098	0.00739
1139.64982	1.80073	0.00741
1140.31516	1.80048	0.00742
1140.98049	1.80022	0.00743
1141.64582	1.79997	0.00745
1142.31116	1.79972	0.00746
1142.97649	1.79947	0.00748
1143.64182	1.79922	0.00749
1144.30715	1.79896	0.0075
1144.97249	1.79871	0.00752
1145.63782	1.79846	0.00753
1146.30315	1.79821	0.00755
1146.96848	1.79795	0.00756
1147.63382	1.7977	0.00758
1148.29915	1.79745	0.00759
1148.96448	1.79719	0.0076
1149.62981	1.79694	0.00762
1150.29515	1.79669	0.00763
1150.96048	1.79643	0.00765
1151.62581	1.79618	0.00766
1152.29115	1.79593	0.00768
1152.95648	1.79567	0.00769
1153.62181	1.79542	0.0077
1154.28714	1.79516	0.00772
1154.95248	1.79491	0.00773
1155.61781	1.79466	0.00775
1156.28314	1.7944	0.00776
1156.94847	1.79415	0.00778
1157.61381	1.79389	0.00779
1158.27914	1.79364	0.00781
1158.94447	1.79338	0.00782
1159.6098	1.79313	0.00783
1160.27514	1.79287	0.00785
1160.94047	1.79262	0.00786
1161.6058	1.79236	0.00788
1162.27114	1.7921	0.00789
1162.93647	1.79185	0.00791
1163.6018	1.79159	0.00792
1164.26713	1.79134	0.00794
1164.93247	1.79108	0.00795
1165.5978	1.79082	0.00797
1166.26313	1.79057	0.00798
1166.92846	1.79031	0.008
1167.5938	1.79005	0.00801
1168.25913	1.7898	0.00803
1168.92446	1.78954	0.00804
1169.58979	1.78928	0.00806
1170.25513	1.78903	0.00807
1170.92046	1.78877	0.00809
1171.58579	1.78851	0.0081
1172.25113	1.78825	0.00812
1172.91646	1.788	0.00813
1173.58179	1.78774	0.00815
1174.24712	1.78748	0.00816
1174.91246	1.78722	0.00818
1175.57779	1.78696	0.00819
1176.24312	1.78671	0.00821
1176.90845	1.78645	0.00822
1177.57379	1.78619	0.00824
1178.23912	1.78593	0.00825
1178.90445	1.78567	0.00827
1179.56978	1.78541	0.00828
1180.23512	1.78515	0.0083
1180.90045	1.78489	0.00831
1181.56578	1.78463	0.00833
1182.23112	1.78437	0.00834
1182.89645	1.78411	0.00836
1183.56178	1.78385	0.00837
1184.22711	1.78359	0.00839
1184.89245	1.78333	0.0084
1185.55778	1.78307	0.00842
1186.22311	1.78281	0.00843
1186.88844	1.78255	0.00845
1187.55378	1.78229	0.00847
1188.21911	1.78203	0.00848
1188.88444	1.78177	0.0085
1189.54977	1.78151	0.00851
1190.21511	1.78125	0.00853
1190.88044	1.78099	0.00854
1191.54577	1.78073	0.00856
1192.21111	1.78046	0.00857
1192.87644	1.7802	0.00859
1193.54177	1.77994	0.00861
1194.2071	1.77968	0.00862
1194.87244	1.77942	0.00864
1195.53777	1.77915	0.00865
1196.2031	1.77889	0.00867
1196.86843	1.77863	0.00868
1197.53377	1.77837	0.0087
1198.1991	1.7781	0.00872
1198.86443	1.77784	0.00873
1199.52976	1.77758	0.00875
1200.1951	1.77731	0.00876
1200.86043	1.77705	0.00878
1201.52576	1.77679	0.00879
1202.1911	1.77652	0.00881
1202.85643	1.77626	0.00883
1203.52176	1.776	0.00884
1204.18709	1.77573	0.00886
1204.85243	1.77547	0.00887
1205.51776	1.7752	0.00889
1206.18309	1.77494	0.00891
1206.84842	1.77468	0.00892
1207.51376	1.77441	0.00894
1208.17909	1.77415	0.00895
1208.84442	1.77388	0.00897
1209.50975	1.77362	0.00899
1210.17509	1.77335	0.009
1210.84042	1.77308	0.00902
1211.50575	1.77282	0.00904
1212.17109	1.77255	0.00905
1212.83642	1.77229	0.00907
1213.50175	1.77202	0.00908
1214.16708	1.77176	0.0091
1214.83242	1.77149	0.00912
1215.49775	1.77122	0.00913
1216.16308	1.77096	0.00915
1216.82841	1.77069	0.00917
1217.49375	1.77042	0.00918
1218.15908	1.77016	0.0092
1218.82441	1.76989	0.00922
1219.48974	1.76962	0.00923
1220.15508	1.76935	0.00925
1220.82041	1.76909	0.00926
1221.48574	1.76882	0.00928
1222.15108	1.76855	0.0093
1222.81641	1.76828	0.00931
1223.48174	1.76802	0.00933
1224.14707	1.76775	0.00935
1224.81241	1.76748	0.00936
1225.47774	1.76721	0.00938
1226.14307	1.76694	0.0094
1226.8084	1.76667	0.00941
1227.47374	1.7664	0.00943
1228.13907	1.76614	0.00945
1228.8044	1.76587	0.00946
1229.46973	1.7656	0.00948
1230.13507	1.76533	0.0095
1230.8004	1.76506	0.00952
1231.46573	1.76479	0.00953
1232.13107	1.76452	0.00955
1232.7964	1.76425	0.00957
1233.46173	1.76398	0.00958
1234.12706	1.76371	0.0096
1234.7924	1.76344	0.00962
1235.45773	1.76317	0.00963
1236.12306	1.7629	0.00965
1236.78839	1.76263	0.00967
1237.45373	1.76235	0.00969
1238.11906	1.76208	0.0097
1238.78439	1.76181	0.00972
1239.44972	1.76154	0.00974
1240.11506	1.76127	0.00975
1240.78039	1.761	0.00977
1241.44572	1.76072	0.00979
1242.11106	1.76045	0.00981
1242.77639	1.76018	0.00982
1243.44172	1.75991	0.00984
1244.10705	1.75964	0.00986
1244.77239	1.75936	0.00987
1245.43772	1.75909	0.00989
1246.10305	1.75882	0.00991
1246.76838	1.75854	0.00993
1247.43372	1.75827	0.00994
1248.09905	1.758	0.00996
1248.76438	1.75772	0.00998
1249.42971	1.75745	0.01
1250.09505	1.75718	0.01001
1250.76038	1.7569	0.01003
1251.42571	1.75663	0.01005
1252.09105	1.75635	0.01007
1252.75638	1.75608	0.01008
1253.42171	1.75581	0.0101
1254.08704	1.75553	0.01012
1254.75238	1.75526	0.01014
1255.41771	1.75498	0.01016
1256.08304	1.75471	0.01017
1256.74837	1.75443	0.01019
1257.41371	1.75416	0.01021
1258.07904	1.75388	0.01023
1258.74437	1.7536	0.01024
1259.4097	1.75333	0.01026
1260.07504	1.75305	0.01028
1260.74037	1.75278	0.0103
1261.4057	1.7525	0.01032
1262.07104	1.75222	0.01033
1262.73637	1.75195	0.01035
1263.4017	1.75167	0.01037
1264.06703	1.75139	0.01039
1264.73237	1.75112	0.01041
1265.3977	1.75084	0.01042
1266.06303	1.75056	0.01044
1266.72836	1.75028	0.01046
1267.3937	1.75001	0.01048
1268.05903	1.74973	0.0105
1268.72436	1.74945	0.01051
1269.38969	1.74917	0.01053
1270.05503	1.74889	0.01055
1270.72036	1.74862	0.01057
1271.38569	1.74834	0.01059
1272.05103	1.74806	0.01061
1272.71636	1.74778	0.01062
1273.38169	1.7475	0.01064
1274.04702	1.74722	0.01066
1274.71236	1.74694	0.01068
1275.37769	1.74666	0.0107
1276.04302	1.74638	0.01072
1276.70835	1.7461	0.01073
1277.37369	1.74582	0.01075
1278.03902	1.74554	0.01077
1278.70435	1.74526	0.01079
1279.36968	1.74498	0.01081
1280.03502	1.7447	0.01083
1280.70035	1.74442	0.01085
1281.36568	1.74414	0.01086
1282.03102	1.74386	0.01088
1282.69635	1.74358	0.0109
1283.36168	1.7433	0.01092
1284.02701	1.74302	0.01094
1284.69235	1.74273	0.01096
1285.35768	1.74245	0.01098
1286.02301	1.74217	0.011
1286.68834	1.74189	0.01101
1287.35368	1.74161	0.01103
1288.01901	1.74132	0.01105
1288.68434	1.74104	0.01107
1289.34967	1.74076	0.01109
1290.01501	1.74048	0.01111
1290.68034	1.74019	0.01113
1291.34567	1.73991	0.01115
1292.01101	1.73963	0.01117
1292.67634	1.73934	0.01118
1293.34167	1.73906	0.0112
1294.007	1.73878	0.01122
1294.67234	1.73849	0.01124
1295.33767	1.73821	0.01126
1296.003	1.73792	0.01128
1296.66833	1.73764	0.0113
1297.33367	1.73736	0.01132
1297.999	1.73707	0.01134
1298.66433	1.73679	0.01136
1299.32966	1.7365	0.01138
1299.995	1.73622	0.0114
1300.66033	1.73593	0.01142
1301.32566	1.73564	0.01143
1301.991	1.73536	0.01145
1302.65633	1.73507	0.01147
1303.32166	1.73479	0.01149
1303.98699	1.7345	0.01151
1304.65233	1.73421	0.01153
1305.31766	1.73393	0.01155
1305.98299	1.73364	0.01157
1306.64832	1.73336	0.01159
1307.31366	1.73307	0.01161
1307.97899	1.73278	0.01163
1308.64432	1.73249	0.01165
1309.30965	1.73221	0.01167
1309.97499	1.73192	0.01169
1310.64032	1.73163	0.01171
1311.30565	1.73134	0.01173
1311.97099	1.73106	0.01175
1312.63632	1.73077	0.01177
1313.30165	1.73048	0.01179
1313.96698	1.73019	0.01181
1314.63232	1.7299	0.01183
1315.29765	1.72961	0.01185
1315.96298	1.72932	0.01187
1316.62831	1.72904	0.01189
1317.29365	1.72875	0.01191
1317.95898	1.72846	0.01193
1318.62431	1.72817	0.01195
1319.28964	1.72788	0.01197
1319.95498	1.72759	0.01199
1320.62031	1.7273	0.01201
1321.28564	1.72701	0.01203
1321.95098	1.72672	0.01205
1322.61631	1.72643	0.01207
1323.28164	1.72614	0.01209
1323.94697	1.72584	0.01211
1324.61231	1.72555	0.01213
1325.27764	1.72526	0.01215
1325.94297	1.72497	0.01217
1326.6083	1.72468	0.01219
1327.27364	1.72439	0.01221
1327.93897	1.7241	0.01223
1328.6043	1.7238	0.01225
1329.26963	1.72351	0.01227
1329.93497	1.72322	0.01229
1330.6003	1.72293	0.01231
1331.26563	1.72263	0.01233
1331.93097	1.72234	0.01235
1332.5963	1.72205	0.01238
1333.26163	1.72176	0.0124
1333.92696	1.72146	0.01242
1334.5923	1.72117	0.01244
1335.25763	1.72088	0.01246
1335.92296	1.72058	0.01248
1336.58829	1.72029	0.0125
1337.25363	1.71999	0.01252
1337.91896	1.7197	0.01254
1338.58429	1.7194	0.01256
1339.24962	1.71911	0.01258
1339.91496	1.71882	0.0126
1340.58029	1.71852	0.01262
1341.24562	1.71823	0.01265
1341.91096	1.71793	0.01267
1342.57629	1.71763	0.01269
1343.24162	1.71734	0.01271
1343.90695	1.71704	0.01273
1344.57229	1.71675	0.01275
1345.23762	1.71645	0.01277
1345.90295	1.71615	0.01279
1346.56828	1.71586	0.01281
1347.23362	1.71556	0.01284
1347.89895	1.71527	0.01286
1348.56428	1.71497	0.01288
1349.22961	1.71467	0.0129
1349.89495	1.71437	0.01292
1350.56028	1.71408	0.01294
1351.22561	1.71378	0.01296
1351.89095	1.71348	0.01298
1352.55628	1.71318	0.01301
1353.22161	1.71289	0.01303
1353.88694	1.71259	0.01305
1354.55228	1.71229	0.01307
1355.21761	1.71199	0.01309
1355.88294	1.71169	0.01311
1356.54827	1.71139	0.01313
1357.21361	1.71109	0.01316
1357.87894	1.71079	0.01318
1358.54427	1.71049	0.0132
1359.2096	1.71019	0.01322
1359.87494	1.70989	0.01324
1360.54027	1.7096	0.01326
1361.2056	1.70929	0.01329
1361.87094	1.70899	0.01331
1362.53627	1.70869	0.01333
1363.2016	1.70839	0.01335
1363.86693	1.70809	0.01337
1364.53227	1.70779	0.0134
1365.1976	1.70749	0.01342
1365.86293	1.70719	0.01344
1366.52826	1.70689	0.01346
1367.1936	1.70659	0.01348
1367.85893	1.70628	0.01351
1368.52426	1.70598	0.01353
1369.18959	1.70568	0.01355
1369.85493	1.70538	0.01357
1370.52026	1.70508	0.01359
1371.18559	1.70477	0.01362
1371.85093	1.70447	0.01364
1372.51626	1.70417	0.01366
1373.18159	1.70386	0.01368
1373.84692	1.70356	0.01371
1374.51226	1.70326	0.01373
1375.17759	1.70295	0.01375
1375.84292	1.70265	0.01377
1376.50825	1.70235	0.0138
1377.17359	1.70204	0.01382
1377.83892	1.70174	0.01384
1378.50425	1.70143	0.01386
1379.16958	1.70113	0.01389
1379.83492	1.70082	0.01391
1380.50025	1.70052	0.01393
1381.16558	1.70021	0.01395
1381.83092	1.69991	0.01398
1382.49625	1.6996	0.014
1383.16158	1.6993	0.01402
1383.82691	1.69899	0.01404
1384.49225	1.69868	0.01407
1385.15758	1.69838	0.01409
1385.82291	1.69807	0.01411
1386.48824	1.69777	0.01414
1387.15358	1.69746	0.01416
1387.81891	1.69715	0.01418
1388.48424	1.69684	0.0142
1389.14957	1.69654	0.01423
1389.81491	1.69623	0.01425
1390.48024	1.69592	0.01427
1391.14557	1.69561	0.0143
1391.81091	1.69531	0.01432
1392.47624	1.695	0.01434
1393.14157	1.69469	0.01437
1393.8069	1.69438	0.01439
1394.47224	1.69407	0.01441
1395.13757	1.69376	0.01443
1395.8029	1.69345	0.01446
1396.46823	1.69315	0.01448
1397.13357	1.69284	0.0145
1397.7989	1.69253	0.01453
1398.46423	1.69222	0.01455
1399.12956	1.69191	0.01457
1399.7949	1.6916	0.0146
1400.46023	1.69129	0.01462
1401.12556	1.69098	0.01465
1401.7909	1.69067	0.01467
1402.45623	1.69035	0.01469
1403.12156	1.69004	0.01472
1403.78689	1.68973	0.01474
1404.45223	1.68942	0.01476
1405.11756	1.68911	0.01479
1405.78289	1.6888	0.01481
1406.44822	1.68849	0.01483
1407.11356	1.68817	0.01486
1407.77889	1.68786	0.01488
1408.44422	1.68755	0.01491
1409.10955	1.68724	0.01493
1409.77489	1.68692	0.01495
1410.44022	1.68661	0.01498
1411.10555	1.6863	0.015
1411.77089	1.68598	0.01503
1412.43622	1.68567	0.01505
1413.10155	1.68536	0.01507
1413.76688	1.68504	0.0151
1414.43222	1.68473	0.01512
1415.09755	1.68442	0.01515
1415.76288	1.6841	0.01517
1416.42821	1.68379	0.01519
1417.09355	1.68347	0.01522
1417.75888	1.68316	0.01524
1418.42421	1.68284	0.01527
1419.08954	1.68253	0.01529
1419.75488	1.68221	0.01532
1420.42021	1.6819	0.01534
1421.08554	1.68158	0.01536
1421.75088	1.68126	0.01539
1422.41621	1.68095	0.01541
1423.08154	1.68063	0.01544
1423.74687	1.68031	0.01546
1424.41221	1.68	0.01549
1425.07754	1.67968	0.01551
1425.74287	1.67936	0.01554
1426.4082	1.67905	0.01556
1427.07354	1.67873	0.01559
1427.73887	1.67841	0.01561
1428.4042	1.67809	0.01564
1429.06953	1.67778	0.01566
1429.73487	1.67746	0.01568
1430.4002	1.67714	0.01571
1431.06553	1.67682	0.01573
1431.73087	1.6765	0.01576
1432.3962	1.67618	0.01578
1433.06153	1.67586	0.01581
1433.72686	1.67555	0.01583
1434.3922	1.67523	0.01586
1435.05753	1.67491	0.01588
1435.72286	1.67459	0.01591
1436.38819	1.67427	0.01593
1437.05353	1.67395	0.01596
1437.71886	1.67363	0.01599
1438.38419	1.67331	0.01601
1439.04952	1.67298	0.01604
1439.71486	1.67266	0.01606
1440.38019	1.67234	0.01609
1441.04552	1.67202	0.01611
1441.71086	1.6717	0.01614
1442.37619	1.67138	0.01616
1443.04152	1.67106	0.01619
1443.70685	1.67073	0.01621
1444.37219	1.67041	0.01624
1445.03752	1.67009	0.01626
1445.70285	1.66977	0.01629
1446.36818	1.66944	0.01632
1447.03352	1.66912	0.01634
1447.69885	1.6688	0.01637
1448.36418	1.66848	0.01639
1449.02951	1.66815	0.01642
1449.69485	1.66783	0.01644
1450.36018	1.6675	0.01647
1451.02551	1.66718	0.0165
1451.69085	1.66686	0.01652
1452.35618	1.66653	0.01655
1453.02151	1.66621	0.01657
1453.68684	1.66588	0.0166
1454.35218	1.66556	0.01663
1455.01751	1.66523	0.01665
1455.68284	1.66491	0.01668
1456.34817	1.66458	0.0167
1457.01351	1.66426	0.01673
1457.67884	1.66393	0.01676
1458.34417	1.6636	0.01678
1459.0095	1.66328	0.01681
1459.67484	1.66295	0.01684
1460.34017	1.66262	0.01686
1461.0055	1.6623	0.01689
1461.67084	1.66197	0.01691
1462.33617	1.66164	0.01694
1463.0015	1.66132	0.01697
1463.66683	1.66099	0.01699
1464.33217	1.66066	0.01702
1464.9975	1.66033	0.01705
1465.66283	1.66	0.01707
1466.32816	1.65968	0.0171
1466.9935	1.65935	0.01713
1467.65883	1.65902	0.01715
1468.32416	1.65869	0.01718
1468.98949	1.65836	0.01721
1469.65483	1.65803	0.01723
1470.32016	1.6577	0.01726
1470.98549	1.65737	0.01729
1471.65083	1.65704	0.01731
1472.31616	1.65671	0.01734
1472.98149	1.65638	0.01737
1473.64682	1.65605	0.01739
1474.31216	1.65572	0.01742
1474.97749	1.65539	0.01745
1475.64282	1.65506	0.01748
1476.30815	1.65473	0.0175
1476.97349	1.65439	0.01753
1477.63882	1.65406	0.01756
1478.30415	1.65373	0.01758
1478.96948	1.6534	0.01761
1479.63482	1.65307	0.01764
1480.30015	1.65273	0.01767
1480.96548	1.6524	0.01769
1481.63082	1.65207	0.01772
1482.29615	1.65174	0.01775
1482.96148	1.6514	0.01778
1483.62681	1.65107	0.0178
1484.29215	1.65074	0.01783
1484.95748	1.6504	0.01786
1485.62281	1.65007	0.01789
1486.28814	1.64973	0.01791
1486.95348	1.6494	0.01794
1487.61881	1.64907	0.01797
1488.28414	1.64873	0.018
1488.94947	1.6484	0.01802
1489.61481	1.64806	0.01805
1490.28014	1.64773	0.01808
1490.94547	1.64739	0.01811
1491.61081	1.64705	0.01814
1492.27614	1.64672	0.01816
1492.94147	1.64638	0.01819
1493.6068	1.64605	0.01822
1494.27214	1.64571	0.01825
1494.93747	1.64537	0.01828
1495.6028	1.64504	0.0183
1496.26813	1.6447	0.01833
1496.93347	1.64436	0.01836
1497.5988	1.64402	0.01839
1498.26413	1.64369	0.01842
1498.92946	1.64335	0.01845
1499.5948	1.64301	0.01847
1500.26013	1.64267	0.0185
1500.92546	1.64233	0.01853
1501.5908	1.642	0.01856
1502.25613	1.64166	0.01859
1502.92146	1.64132	0.01862
1503.58679	1.64098	0.01864
1504.25213	1.64064	0.01867
1504.91746	1.6403	0.0187
1505.58279	1.63996	0.01873
1506.24812	1.63962	0.01876
1506.91346	1.63928	0.01879
1507.57879	1.63894	0.01882
1508.24412	1.6386	0.01885
1508.90945	1.63826	0.01887
1509.57479	1.63792	0.0189
1510.24012	1.63758	0.01893
1510.90545	1.63723	0.01896
1511.57079	1.63689	0.01899
1512.23612	1.63655	0.01902
1512.90145	1.63621	0.01905
1513.56678	1.63587	0.01908
1514.23212	1.63552	0.01911
1514.89745	1.63518	0.01914
1515.56278	1.63484	0.01916
1516.22811	1.6345	0.01919
1516.89345	1.63415	0.01922
1517.55878	1.63381	0.01925
1518.22411	1.63346	0.01928
1518.88944	1.63312	0.01931
1519.55478	1.63278	0.01934
1520.22011	1.63243	0.01937
1520.88544	1.63209	0.0194
1521.55078	1.63174	0.01943
1522.21611	1.6314	0.01946
1522.88144	1.63105	0.01949
1523.54677	1.63071	0.01952
1524.21211	1.63036	0.01955
1524.87744	1.63002	0.01958
1525.54277	1.62967	0.01961
1526.2081	1.62933	0.01964
1526.87344	1.62898	0.01967
1527.53877	1.62863	0.0197
1528.2041	1.62829	0.01973
1528.86943	1.62794	0.01976
1529.53477	1.62759	0.01979
1530.2001	1.62725	0.01982
1530.86543	1.6269	0.01985
1531.53077	1.62655	0.01988
1532.1961	1.6262	0.01991
1532.86143	1.62585	0.01994
1533.52676	1.62551	0.01997
1534.1921	1.62516	0.02
1534.85743	1.62481	0.02003
1535.52276	1.62446	0.02006
1536.18809	1.62411	0.02009
1536.85343	1.62376	0.02012
1537.51876	1.62341	0.02015
1538.18409	1.62306	0.02018
1538.84942	1.62271	0.02021
1539.51476	1.62236	0.02024
1540.18009	1.62201	0.02027
1540.84542	1.62166	0.0203
1541.51076	1.62131	0.02033
1542.17609	1.62096	0.02036
1542.84142	1.62061	0.02039
1543.50675	1.62026	0.02042
1544.17209	1.61991	0.02046
1544.83742	1.61955	0.02049
1545.50275	1.6192	0.02052
1546.16808	1.61885	0.02055
1546.83342	1.6185	0.02058
1547.49875	1.61814	0.02061
1548.16408	1.61779	0.02064
1548.82941	1.61744	0.02067
1549.49475	1.61708	0.0207
1550.16008	1.61673	0.02073
1550.82541	1.61638	0.02077
1551.49075	1.61602	0.0208
1552.15608	1.61567	0.02083
1552.82141	1.61532	0.02086
1553.48674	1.61496	0.02089
1554.15208	1.61461	0.02092
1554.81741	1.61425	0.02095
1555.48274	1.6139	0.02098
1556.14807	1.61354	0.02102
1556.81341	1.61319	0.02105
1557.47874	1.61283	0.02108
1558.14407	1.61247	0.02111
1558.8094	1.61212	0.02114
1559.47474	1.61176	0.02117
1560.14007	1.6114	0.02121
1560.8054	1.61105	0.02124
1561.47074	1.61069	0.02127
1562.13607	1.61033	0.0213
1562.8014	1.60998	0.02133
1563.46673	1.60962	0.02137
1564.13207	1.60926	0.0214
1564.7974	1.6089	0.02143
1565.46273	1.60854	0.02146
1566.12806	1.60819	0.02149
1566.7934	1.60783	0.02153
1567.45873	1.60747	0.02156
1568.12406	1.60711	0.02159
1568.78939	1.60675	0.02162
1569.45473	1.60639	0.02166
1570.12006	1.60603	0.02169
1570.78539	1.60567	0.02172
1571.45073	1.60531	0.02175
1572.11606	1.60495	0.02178
1572.78139	1.60459	0.02182
1573.44672	1.60423	0.02185
1574.11206	1.60387	0.02188
1574.77739	1.60351	0.02192
1575.44272	1.60314	0.02195
1576.10805	1.60278	0.02198
1576.77339	1.60242	0.02201
1577.43872	1.60206	0.02205
1578.10405	1.6017	0.02208
1578.76938	1.60133	0.02211
1579.43472	1.60097	0.02214
1580.10005	1.60061	0.02218
1580.76538	1.60024	0.02221
1581.43072	1.59988	0.02224
1582.09605	1.59952	0.02228
1582.76138	1.59915	0.02231
1583.42671	1.59879	0.02234
1584.09205	1.59843	0.02238
1584.75738	1.59806	0.02241
1585.42271	1.5977	0.02244
1586.08804	1.59733	0.02248
1586.75338	1.59697	0.02251
1587.41871	1.5966	0.02254
1588.08404	1.59624	0.02258
1588.74937	1.59587	0.02261
1589.41471	1.5955	0.02264
1590.08004	1.59514	0.02268
1590.74537	1.59477	0.02271
1591.41071	1.5944	0.02274
1592.07604	1.59404	0.02278
1592.74137	1.59367	0.02281
1593.4067	1.5933	0.02285
1594.07204	1.59294	0.02288
1594.73737	1.59257	0.02291
1595.4027	1.5922	0.02295
1596.06803	1.59183	0.02298
1596.73337	1.59146	0.02302
1597.3987	1.59109	0.02305
1598.06403	1.59073	0.02308
1598.72936	1.59036	0.02312
1599.3947	1.58999	0.02315
1600.06003	1.58962	0.02319
1600.72536	1.58925	0.02322
1601.3907	1.58888	0.02326
1602.05603	1.58851	0.02329
1602.72136	1.58814	0.02332
1603.38669	1.58777	0.02336
1604.05203	1.5874	0.02339
1604.71736	1.58702	0.02343
1605.38269	1.58665	0.02346
1606.04802	1.58628	0.0235
1606.71336	1.58591	0.02353
1607.37869	1.58554	0.02357
1608.04402	1.58517	0.0236
1608.70935	1.58479	0.02364
1609.37469	1.58442	0.02367
1610.04002	1.58405	0.02371
1610.70535	1.58367	0.02374
1611.37069	1.5833	0.02378
1612.03602	1.58293	0.02381
1612.70135	1.58255	0.02385
1613.36668	1.58218	0.02388
1614.03202	1.58181	0.02392
1614.69735	1.58143	0.02395
1615.36268	1.58106	0.02399
1616.02801	1.58068	0.02402
1616.69335	1.58031	0.02406
1617.35868	1.57993	0.02409
1618.02401	1.57956	0.02413
1618.68934	1.57918	0.02416
1619.35468	1.5788	0.0242
1620.02001	1.57843	0.02423
1620.68534	1.57805	0.02427
1621.35068	1.57767	0.02431
1622.01601	1.5773	0.02434
1622.68134	1.57692	0.02438
1623.34667	1.57654	0.02441
1624.01201	1.57617	0.02445
1624.67734	1.57579	0.02448
1625.34267	1.57541	0.02452
1626.008	1.57503	0.02456
1626.67334	1.57465	0.02459
1627.33867	1.57427	0.02463
1628.004	1.5739	0.02466
1628.66933	1.57352	0.0247
1629.33467	1.57314	0.02474
1630	1.57276	0.02477