// thickness-independent fraction of light power (for rudimentary optics) between 0 and 1
simple transmission coefficient:
1

// wavelength-independent absorption coefficient 'a' according to I(z)=I0*exp(-a*z) in [1/m]
lambert beer absorption coefficient:
93340

// three-column refractive data for TMM calculations with wavelength [nm], n, k (must be tab-separated)
refractive data:
300	2.1212	0.2757
300.665	2.1213	0.2733
301.331	2.1214	0.271
301.996	2.1215	0.2687
302.661	2.1216	0.2663
303.327	2.1217	0.264
303.992	2.1218	0.2617
304.657	2.1218	0.2593
305.323	2.1219	0.257
305.988	2.1219	0.2547
306.653	2.1219	0.2524
307.319	2.1219	0.2501
307.984	2.1219	0.2478
308.649	2.1219	0.2455
309.315	2.1218	0.2432
309.98	2.1218	0.2409
310.645	2.1217	0.2386
311.311	2.1216	0.2364
311.976	2.1215	0.2341
312.641	2.1214	0.2318
313.307	2.1213	0.2296
313.972	2.1211	0.2273
314.637	2.1209	0.2251
315.303	2.1208	0.2228
315.968	2.1206	0.2206
316.633	2.1204	0.2184
317.299	2.1202	0.2161
317.964	2.1199	0.2139
318.629	2.1197	0.2117
319.295	2.1194	0.2095
319.96	2.1192	0.2073
320.625	2.1189	0.2051
321.291	2.1186	0.2029
321.956	2.1183	0.2007
322.621	2.118	0.1985
323.287	2.1176	0.1964
323.952	2.1173	0.1942
324.617	2.1169	0.192
325.283	2.1165	0.1899
325.948	2.1161	0.1878
326.613	2.1157	0.1856
327.279	2.1153	0.1835
327.944	2.1149	0.1814
328.609	2.1144	0.1792
329.275	2.114	0.1771
329.94	2.1135	0.175
330.605	2.113	0.1729
331.271	2.1125	0.1709
331.936	2.112	0.1688
332.601	2.1115	0.1667
333.267	2.111	0.1646
333.932	2.1104	0.1626
334.597	2.1098	0.1605
335.263	2.1093	0.1585
335.928	2.1087	0.1565
336.593	2.1081	0.1545
337.259	2.1075	0.1524
337.924	2.1068	0.1504
338.589	2.1062	0.1484
339.255	2.1055	0.1464
339.92	2.1049	0.1445
340.585	2.1042	0.1425
341.251	2.1035	0.1405
341.916	2.1028	0.1386
342.581	2.1021	0.1366
343.247	2.1014	0.1347
343.912	2.1006	0.1328
344.577	2.0999	0.1308
345.243	2.0991	0.1289
345.908	2.0983	0.127
346.573	2.0976	0.1252
347.239	2.0968	0.1233
347.904	2.096	0.1214
348.569	2.0951	0.1195
349.235	2.0943	0.1177
349.9	2.0934	0.1159
350.565	2.0926	0.114
351.231	2.0917	0.1122
351.896	2.0908	0.1104
352.561	2.0899	0.1086
353.227	2.089	0.1068
353.892	2.0881	0.105
354.557	2.0872	0.1033
355.223	2.0863	0.1015
355.888	2.0853	0.0998
356.553	2.0843	0.098
357.219	2.0834	0.0963
357.884	2.0824	0.0946
358.549	2.0814	0.0929
359.215	2.0804	0.0912
359.88	2.0794	0.0895
360.545	2.0783	0.0879
361.211	2.0773	0.0862
361.876	2.0763	0.0846
362.541	2.0752	0.0829
363.207	2.0741	0.0813
363.872	2.0731	0.0797
364.537	2.072	0.0781
365.203	2.0709	0.0765
365.868	2.0698	0.075
366.533	2.0686	0.0734
367.199	2.0675	0.0719
367.864	2.0664	0.0703
368.529	2.0652	0.0688
369.195	2.0641	0.0673
369.86	2.0629	0.0658
370.525	2.0617	0.0643
371.191	2.0605	0.0629
371.856	2.0593	0.0614
372.521	2.0581	0.06
373.187	2.0569	0.0585
373.852	2.0557	0.0571
374.517	2.0544	0.0557
375.183	2.0532	0.0544
375.848	2.0519	0.053
376.513	2.0507	0.0516
377.179	2.0494	0.0503
377.844	2.0481	0.049
378.509	2.0469	0.0477
379.175	2.0456	0.0464
379.84	2.0443	0.0451
380.505	2.043	0.0438
381.171	2.0416	0.0426
381.836	2.0403	0.0413
382.501	2.039	0.0401
383.167	2.0376	0.0389
383.832	2.0363	0.0377
384.497	2.0349	0.0366
385.163	2.0336	0.0354
385.828	2.0322	0.0343
386.493	2.0308	0.0332
387.159	2.0295	0.0321
387.824	2.0281	0.031
388.489	2.0267	0.0299
389.155	2.0253	0.0288
389.82	2.0239	0.0278
390.485	2.0225	0.0268
391.151	2.0211	0.0258
391.816	2.0197	0.0248
392.481	2.0182	0.0238
393.147	2.0168	0.0229
393.812	2.0154	0.0219
394.477	2.0139	0.021
395.143	2.0125	0.0201
395.808	2.011	0.0192
396.473	2.0096	0.0184
397.139	2.0081	0.0175
397.804	2.0067	0.0167
398.469	2.0052	0.0159
399.135	2.0038	0.0151
399.8	2.0023	0.0144
400.465	2.0008	0.0136
401.131	1.9994	0.0129
401.796	1.9979	0.0122
402.461	1.9964	0.0115
403.127	1.995	0.0109
403.792	1.9935	0.0102
404.457	1.992	0.0096
405.123	1.9906	0.009
405.788	1.9891	0.0084
406.453	1.9876	0.0078
407.119	1.9862	0.0073
407.784	1.9847	0.0068
408.449	1.9832	0.0063
409.115	1.9818	0.0058
409.78	1.9803	0.0053
410.445	1.9788	0.0049
411.111	1.9774	0.0045
411.776	1.9759	0.0041
412.441	1.9745	0.0037
413.107	1.9731	0.0034
413.772	1.9716	0.0031
414.437	1.9702	0.0028
415.103	1.9688	0.0025
415.768	1.9674	0.0022
416.433	1.966	0.002
417.099	1.9646	0.0018
417.764	1.9632	0.0016
418.429	1.9619	0.0015
419.095	1.9605	0.0013
419.76	1.9592	0.0012
420.425	1.9579	0.0011
421.091	1.9566	0.0011
421.756	1.9553	0.001
422.421	1.9541	0.001
423.087	1.9529	0.001
423.752	1.9517	0.001
424.417	1.9506	0.001
425.083	1.9495	0.001
425.748	1.9484	0.001
426.413	1.9473	0.0011
427.079	1.9462	0.0011
427.744	1.9452	0.0011
428.409	1.9441	0.0011
429.075	1.9431	0.0011
429.74	1.9421	0.0011
430.405	1.9411	0.0011
431.071	1.9401	0.0011
431.736	1.9392	0.0011
432.401	1.9382	0.0011
433.067	1.9373	0.0011
433.732	1.9363	0.0011
434.397	1.9354	0.0011
435.063	1.9345	0.0011
435.728	1.9336	0.0011
436.393	1.9327	0.0011
437.059	1.9318	0.0011
437.724	1.931	0.0012
438.389	1.9301	0.0012
439.055	1.9292	0.0012
439.72	1.9284	0.0012
440.385	1.9275	0.0012
441.051	1.9267	0.0012
441.716	1.9259	0.0012
442.381	1.9251	0.0012
443.047	1.9243	0.0012
443.712	1.9235	0.0012
444.377	1.9227	0.0012
445.043	1.9219	0.0012
445.708	1.9211	0.0012
446.373	1.9203	0.0012
447.039	1.9195	0.0012
447.704	1.9188	0.0012
448.369	1.918	0.0013
449.035	1.9173	0.0013
449.7	1.9165	0.0013
450.365	1.9158	0.0013
451.031	1.915	0.0013
451.696	1.9143	0.0013
452.361	1.9136	0.0013
453.027	1.9129	0.0013
453.692	1.9121	0.0013
454.357	1.9114	0.0013
455.023	1.9107	0.0013
455.688	1.91	0.0013
456.353	1.9093	0.0013
457.019	1.9086	0.0013
457.684	1.908	0.0013
458.349	1.9073	0.0013
459.015	1.9066	0.0014
459.68	1.9059	0.0014
460.345	1.9053	0.0014
461.011	1.9046	0.0014
461.676	1.9039	0.0014
462.341	1.9033	0.0014
463.007	1.9026	0.0014
463.672	1.902	0.0014
464.337	1.9013	0.0014
465.003	1.9007	0.0014
465.668	1.9001	0.0014
466.333	1.8994	0.0014
466.998	1.8988	0.0014
467.664	1.8982	0.0014
468.329	1.8976	0.0015
468.994	1.897	0.0015
469.66	1.8963	0.0015
470.325	1.8957	0.0015
470.99	1.8951	0.0015
471.656	1.8945	0.0015
472.321	1.8939	0.0015
472.986	1.8933	0.0015
473.652	1.8927	0.0015
474.317	1.8921	0.0015
474.982	1.8916	0.0015
475.648	1.891	0.0015
476.313	1.8904	0.0015
476.978	1.8898	0.0015
477.644	1.8892	0.0016
478.309	1.8887	0.0016
478.974	1.8881	0.0016
479.64	1.8875	0.0016
480.305	1.887	0.0016
480.97	1.8864	0.0016
481.636	1.8859	0.0016
482.301	1.8853	0.0016
482.966	1.8848	0.0016
483.632	1.8842	0.0016
484.297	1.8837	0.0016
484.962	1.8831	0.0016
485.628	1.8826	0.0016
486.293	1.882	0.0016
486.958	1.8815	0.0017
487.624	1.881	0.0017
488.289	1.8804	0.0017
488.954	1.8799	0.0017
489.62	1.8794	0.0017
490.285	1.8789	0.0017
490.95	1.8783	0.0017
491.616	1.8778	0.0017
492.281	1.8773	0.0017
492.946	1.8768	0.0017
493.612	1.8763	0.0017
494.277	1.8758	0.0017
494.942	1.8753	0.0017
495.608	1.8748	0.0018
496.273	1.8742	0.0018
496.938	1.8737	0.0018
497.604	1.8732	0.0018
498.269	1.8727	0.0018
498.934	1.8723	0.0018
499.6	1.8718	0.0018
500.265	1.8713	0.0018
500.93	1.8708	0.0018
501.596	1.8703	0.0018
502.261	1.8698	0.0018
502.926	1.8693	0.0018
503.592	1.8688	0.0019
504.257	1.8684	0.0019
504.922	1.8679	0.0019
505.588	1.8674	0.0019
506.253	1.8669	0.0019
506.918	1.8665	0.0019
507.584	1.866	0.0019
508.249	1.8655	0.0019
508.914	1.865	0.0019
509.58	1.8646	0.0019
510.245	1.8641	0.0019
510.91	1.8636	0.0019
511.576	1.8632	0.002
512.241	1.8627	0.002
512.906	1.8623	0.002
513.572	1.8618	0.002
514.237	1.8614	0.002
514.902	1.8609	0.002
515.568	1.8605	0.002
516.233	1.86	0.002
516.898	1.8596	0.002
517.564	1.8591	0.002
518.229	1.8587	0.002
518.894	1.8582	0.002
519.56	1.8578	0.0021
520.225	1.8573	0.0021
520.89	1.8569	0.0021
521.556	1.8565	0.0021
522.221	1.856	0.0021
522.886	1.8556	0.0021
523.552	1.8551	0.0021
524.217	1.8547	0.0021
524.882	1.8543	0.0021
525.548	1.8538	0.0021
526.213	1.8534	0.0021
526.878	1.853	0.0022
527.544	1.8526	0.0022
528.209	1.8521	0.0022
528.874	1.8517	0.0022
529.54	1.8513	0.0022
530.205	1.8509	0.0022
530.87	1.8504	0.0022
531.536	1.85	0.0022
532.201	1.8496	0.0022
532.866	1.8492	0.0022
533.532	1.8488	0.0022
534.197	1.8484	0.0023
534.862	1.8479	0.0023
535.528	1.8475	0.0023
536.193	1.8471	0.0023
536.858	1.8467	0.0023
537.524	1.8463	0.0023
538.189	1.8459	0.0023
538.854	1.8455	0.0023
539.52	1.8451	0.0023
540.185	1.8447	0.0023
540.85	1.8443	0.0024
541.516	1.8439	0.0024
542.181	1.8435	0.0024
542.846	1.8431	0.0024
543.512	1.8427	0.0024
544.177	1.8423	0.0024
544.842	1.8419	0.0024
545.508	1.8415	0.0024
546.173	1.8411	0.0024
546.838	1.8407	0.0024
547.504	1.8403	0.0025
548.169	1.8399	0.0025
548.834	1.8395	0.0025
549.5	1.8391	0.0025
550.165	1.8387	0.0025
550.83	1.8383	0.0025
551.496	1.8379	0.0025
552.161	1.8376	0.0025
552.826	1.8372	0.0025
553.492	1.8368	0.0025
554.157	1.8364	0.0026
554.822	1.836	0.0026
555.488	1.8356	0.0026
556.153	1.8353	0.0026
556.818	1.8349	0.0026
557.484	1.8345	0.0026
558.149	1.8341	0.0026
558.814	1.8337	0.0026
559.48	1.8334	0.0026
560.145	1.833	0.0027
560.81	1.8326	0.0027
561.476	1.8322	0.0027
562.141	1.8318	0.0027
562.806	1.8315	0.0027
563.472	1.8311	0.0027
564.137	1.8307	0.0027
564.802	1.8304	0.0027
565.468	1.83	0.0027
566.133	1.8296	0.0027
566.798	1.8292	0.0028
567.464	1.8289	0.0028
568.129	1.8285	0.0028
568.794	1.8281	0.0028
569.46	1.8278	0.0028
570.125	1.8274	0.0028
570.79	1.827	0.0028
571.456	1.8267	0.0028
572.121	1.8263	0.0028
572.786	1.8259	0.0029
573.452	1.8256	0.0029
574.117	1.8252	0.0029
574.782	1.8249	0.0029
575.448	1.8245	0.0029
576.113	1.8241	0.0029
576.778	1.8238	0.0029
577.444	1.8234	0.0029
578.109	1.823	0.003
578.774	1.8227	0.003
579.44	1.8223	0.003
580.105	1.822	0.003
580.77	1.8216	0.003
581.436	1.8213	0.003
582.101	1.8209	0.003
582.766	1.8206	0.003
583.432	1.8202	0.003
584.097	1.8198	0.0031
584.762	1.8195	0.0031
585.428	1.8191	0.0031
586.093	1.8188	0.0031
586.758	1.8184	0.0031
587.424	1.8181	0.0031
588.089	1.8177	0.0031
588.754	1.8174	0.0031
589.42	1.817	0.0032
590.085	1.8167	0.0032
590.75	1.8163	0.0032
591.416	1.816	0.0032
592.081	1.8156	0.0032
592.746	1.8153	0.0032
593.412	1.815	0.0032
594.077	1.8146	0.0032
594.742	1.8143	0.0032
595.408	1.8139	0.0033
596.073	1.8136	0.0033
596.738	1.8132	0.0033
597.404	1.8129	0.0033
598.069	1.8125	0.0033
598.734	1.8122	0.0033
599.4	1.8119	0.0033
600.065	1.8115	0.0033
600.73	1.8112	0.0034
601.396	1.8108	0.0034
602.061	1.8105	0.0034
602.726	1.8101	0.0034
603.392	1.8098	0.0034
604.057	1.8095	0.0034
604.722	1.8091	0.0034
605.388	1.8088	0.0035
606.053	1.8085	0.0035
606.718	1.8081	0.0035
607.384	1.8078	0.0035
608.049	1.8074	0.0035
608.714	1.8071	0.0035
609.38	1.8068	0.0035
610.045	1.8064	0.0035
610.71	1.8061	0.0036
611.376	1.8058	0.0036
612.041	1.8054	0.0036
612.706	1.8051	0.0036
613.372	1.8048	0.0036
614.037	1.8044	0.0036
614.702	1.8041	0.0036
615.368	1.8038	0.0037
616.033	1.8034	0.0037
616.698	1.8031	0.0037
617.364	1.8028	0.0037
618.029	1.8024	0.0037
618.694	1.8021	0.0037
619.36	1.8018	0.0037
620.025	1.8014	0.0037
620.69	1.8011	0.0038
621.356	1.8008	0.0038
622.021	1.8005	0.0038
622.686	1.8001	0.0038
623.352	1.7998	0.0038
624.017	1.7995	0.0038
624.682	1.7991	0.0038
625.348	1.7988	0.0039
626.013	1.7985	0.0039
626.678	1.7982	0.0039
627.344	1.7978	0.0039
628.009	1.7975	0.0039
628.674	1.7972	0.0039
629.34	1.7968	0.0039
630.005	1.7965	0.004
630.67	1.7962	0.004
631.336	1.7959	0.004
632.001	1.7955	0.004
632.666	1.7952	0.004
633.332	1.7949	0.004
633.997	1.7946	0.004
634.662	1.7942	0.0041
635.328	1.7939	0.0041
635.993	1.7936	0.0041
636.658	1.7933	0.0041
637.324	1.793	0.0041
637.989	1.7926	0.0041
638.654	1.7923	0.0041
639.32	1.792	0.0042
639.985	1.7917	0.0042
640.65	1.7913	0.0042
641.316	1.791	0.0042
641.981	1.7907	0.0042
642.646	1.7904	0.0042
643.312	1.7901	0.0043
643.977	1.7897	0.0043
644.642	1.7894	0.0043
645.308	1.7891	0.0043
645.973	1.7888	0.0043
646.638	1.7884	0.0043
647.304	1.7881	0.0043
647.969	1.7878	0.0044
648.634	1.7875	0.0044
649.3	1.7872	0.0044
649.965	1.7869	0.0044
650.63	1.7865	0.0044
651.296	1.7862	0.0044
651.961	1.7859	0.0045
652.626	1.7856	0.0045
653.292	1.7853	0.0045
653.957	1.7849	0.0045
654.622	1.7846	0.0045
655.288	1.7843	0.0045
655.953	1.784	0.0045
656.618	1.7837	0.0046
657.284	1.7834	0.0046
657.949	1.783	0.0046
658.614	1.7827	0.0046
659.28	1.7824	0.0046
659.945	1.7821	0.0046
660.61	1.7818	0.0047
661.276	1.7815	0.0047
661.941	1.7811	0.0047
662.606	1.7808	0.0047
663.272	1.7805	0.0047
663.937	1.7802	0.0047
664.602	1.7799	0.0048
665.268	1.7796	0.0048
665.933	1.7792	0.0048
666.598	1.7789	0.0048
667.264	1.7786	0.0048
667.929	1.7783	0.0048
668.594	1.778	0.0049
669.26	1.7777	0.0049
669.925	1.7773	0.0049
670.59	1.777	0.0049
671.256	1.7767	0.0049
671.921	1.7764	0.0049
672.586	1.7761	0.005
673.252	1.7758	0.005
673.917	1.7755	0.005
674.582	1.7751	0.005
675.248	1.7748	0.005
675.913	1.7745	0.005
676.578	1.7742	0.0051
677.244	1.7739	0.0051
677.909	1.7736	0.0051
678.574	1.7733	0.0051
679.24	1.773	0.0051
679.905	1.7726	0.0052
680.57	1.7723	0.0052
681.236	1.772	0.0052
681.901	1.7717	0.0052
682.566	1.7714	0.0052
683.232	1.7711	0.0052
683.897	1.7708	0.0053
684.562	1.7704	0.0053
685.228	1.7701	0.0053
685.893	1.7698	0.0053
686.558	1.7695	0.0053
687.224	1.7692	0.0053
687.889	1.7689	0.0054
688.554	1.7686	0.0054
689.22	1.7683	0.0054
689.885	1.7679	0.0054
690.55	1.7676	0.0054
691.216	1.7673	0.0055
691.881	1.767	0.0055
692.546	1.7667	0.0055
693.212	1.7664	0.0055
693.877	1.7661	0.0055
694.542	1.7658	0.0056
695.208	1.7655	0.0056
695.873	1.7651	0.0056
696.538	1.7648	0.0056
697.204	1.7645	0.0056
697.869	1.7642	0.0056
698.534	1.7639	0.0057
699.2	1.7636	0.0057
699.865	1.7633	0.0057
700.53	1.763	0.0057
701.196	1.7626	0.0057
701.861	1.7623	0.0058
702.526	1.762	0.0058
703.192	1.7617	0.0058
703.857	1.7614	0.0058
704.522	1.7611	0.0058
705.188	1.7608	0.0059
705.853	1.7605	0.0059
706.518	1.7602	0.0059
707.184	1.7598	0.0059
707.849	1.7595	0.0059
708.514	1.7592	0.006
709.18	1.7589	0.006
709.845	1.7586	0.006
710.51	1.7583	0.006
711.176	1.758	0.006
711.841	1.7577	0.0061
712.506	1.7574	0.0061
713.172	1.757	0.0061
713.837	1.7567	0.0061
714.502	1.7564	0.0061
715.168	1.7561	0.0062
715.833	1.7558	0.0062
716.498	1.7555	0.0062
717.164	1.7552	0.0062
717.829	1.7549	0.0062
718.494	1.7546	0.0063
719.16	1.7542	0.0063
719.825	1.7539	0.0063
720.49	1.7536	0.0063
721.156	1.7533	0.0063
721.821	1.753	0.0064
722.486	1.7527	0.0064
723.152	1.7524	0.0064
723.817	1.7521	0.0064
724.482	1.7517	0.0064
725.148	1.7514	0.0065
725.813	1.7511	0.0065
726.478	1.7508	0.0065
727.144	1.7505	0.0065
727.809	1.7502	0.0066
728.474	1.7499	0.0066
729.14	1.7496	0.0066
729.805	1.7493	0.0066
730.47	1.7489	0.0066
731.136	1.7486	0.0067
731.801	1.7483	0.0067
732.466	1.748	0.0067
733.132	1.7477	0.0067
733.797	1.7474	0.0067
734.462	1.7471	0.0068
735.128	1.7468	0.0068
735.793	1.7464	0.0068
736.458	1.7461	0.0068
737.124	1.7458	0.0069
737.789	1.7455	0.0069
738.454	1.7452	0.0069
739.12	1.7449	0.0069
739.785	1.7446	0.0069
740.45	1.7443	0.007
741.116	1.7439	0.007
741.781	1.7436	0.007
742.446	1.7433	0.007
743.112	1.743	0.0071
743.777	1.7427	0.0071
744.442	1.7424	0.0071
745.108	1.7421	0.0071
745.773	1.7418	0.0071
746.438	1.7414	0.0072
747.104	1.7411	0.0072
747.769	1.7408	0.0072
748.434	1.7405	0.0072
749.1	1.7402	0.0073
749.765	1.7399	0.0073
750.43	1.7396	0.0073
751.096	1.7393	0.0073
751.761	1.7389	0.0074
752.426	1.7386	0.0074
753.092	1.7383	0.0074
753.757	1.738	0.0074
754.422	1.7377	0.0074
755.088	1.7374	0.0075
755.753	1.7371	0.0075
756.418	1.7367	0.0075
757.084	1.7364	0.0075
757.749	1.7361	0.0076
758.414	1.7358	0.0076
759.08	1.7355	0.0076
759.745	1.7352	0.0076
760.41	1.7349	0.0077
761.076	1.7345	0.0077
761.741	1.7342	0.0077
762.406	1.7339	0.0077
763.072	1.7336	0.0078
763.737	1.7333	0.0078
764.402	1.733	0.0078
765.068	1.7326	0.0078
765.733	1.7323	0.0079
766.398	1.732	0.0079
767.064	1.7317	0.0079
767.729	1.7314	0.0079
768.394	1.7311	0.008
769.06	1.7307	0.008
769.725	1.7304	0.008
770.39	1.7301	0.008
771.056	1.7298	0.0081
771.721	1.7295	0.0081
772.386	1.7292	0.0081
773.052	1.7289	0.0081
773.717	1.7285	0.0082
774.382	1.7282	0.0082
775.048	1.7279	0.0082
775.713	1.7276	0.0082
776.378	1.7273	0.0083
777.044	1.7269	0.0083
777.709	1.7266	0.0083
778.374	1.7263	0.0083
779.04	1.726	0.0084
779.705	1.7257	0.0084
780.37	1.7254	0.0084
781.036	1.725	0.0084
781.701	1.7247	0.0085
782.366	1.7244	0.0085
783.032	1.7241	0.0085
783.697	1.7238	0.0085
784.362	1.7234	0.0086
785.028	1.7231	0.0086
785.693	1.7228	0.0086
786.358	1.7225	0.0087
787.024	1.7222	0.0087
787.689	1.7218	0.0087
788.354	1.7215	0.0087
789.02	1.7212	0.0088
789.685	1.7209	0.0088
790.35	1.7206	0.0088
791.016	1.7202	0.0088
791.681	1.7199	0.0089
792.346	1.7196	0.0089
793.012	1.7193	0.0089
793.677	1.719	0.009
794.342	1.7186	0.009
795.008	1.7183	0.009
795.673	1.718	0.009
796.338	1.7177	0.0091
797.004	1.7174	0.0091
797.669	1.717	0.0091
798.334	1.7167	0.0091
798.999	1.7164	0.0092
799.665	1.7161	0.0092
800.33	1.7158	0.0092
800.995	1.7154	0.0093
801.661	1.7151	0.0093
802.326	1.7148	0.0093
802.991	1.7145	0.0093
803.657	1.7141	0.0094
804.322	1.7138	0.0094
804.987	1.7135	0.0094
805.653	1.7132	0.0095
806.318	1.7128	0.0095
806.983	1.7125	0.0095
807.649	1.7122	0.0095
808.314	1.7119	0.0096
808.979	1.7115	0.0096
809.645	1.7112	0.0096
810.31	1.7109	0.0097
810.975	1.7106	0.0097
811.641	1.7102	0.0097
812.306	1.7099	0.0098
812.971	1.7096	0.0098
813.637	1.7093	0.0098
814.302	1.7089	0.0098
814.967	1.7086	0.0099
815.633	1.7083	0.0099
816.298	1.708	0.0099
816.963	1.7076	0.01
817.629	1.7073	0.01
818.294	1.707	0.01
818.959	1.7067	0.01
819.625	1.7063	0.0101
820.29	1.706	0.0101
820.955	1.7057	0.0101
821.621	1.7054	0.0102
822.286	1.705	0.0102
822.951	1.7047	0.0102
823.617	1.7044	0.0103
824.282	1.704	0.0103
824.947	1.7037	0.0103
825.613	1.7034	0.0104
826.278	1.7031	0.0104
826.943	1.7027	0.0104
827.609	1.7024	0.0104
828.274	1.7021	0.0105
828.939	1.7017	0.0105
829.605	1.7014	0.0105
830.27	1.7011	0.0106
830.935	1.7007	0.0106
831.601	1.7004	0.0106
832.266	1.7001	0.0107
832.931	1.6998	0.0107
833.597	1.6994	0.0107
834.262	1.6991	0.0108
834.927	1.6988	0.0108
835.593	1.6984	0.0108
836.258	1.6981	0.0109
836.923	1.6978	0.0109
837.589	1.6974	0.0109
838.254	1.6971	0.011
838.919	1.6968	0.011
839.585	1.6964	0.011
840.25	1.6961	0.0111
840.915	1.6958	0.0111
841.581	1.6954	0.0111
842.246	1.6951	0.0112
842.911	1.6948	0.0112
843.577	1.6944	0.0112
844.242	1.6941	0.0113
844.907	1.6938	0.0113
845.573	1.6934	0.0113
846.238	1.6931	0.0114
846.903	1.6928	0.0114
847.569	1.6924	0.0114
848.234	1.6921	0.0115
848.899	1.6917	0.0115
849.565	1.6914	0.0115
850.23	1.6911	0.0116
850.895	1.6907	0.0116
851.561	1.6904	0.0116
852.226	1.6901	0.0117
852.891	1.6897	0.0117
853.557	1.6894	0.0117
854.222	1.6891	0.0118
854.887	1.6887	0.0118
855.553	1.6884	0.0118
856.218	1.688	0.0119
856.883	1.6877	0.0119
857.549	1.6874	0.0119
858.214	1.687	0.012
858.879	1.6867	0.012
859.545	1.6863	0.012
860.21	1.686	0.0121
860.875	1.6857	0.0121
861.541	1.6853	0.0121
862.206	1.685	0.0122
862.871	1.6846	0.0122
863.537	1.6843	0.0123
864.202	1.684	0.0123
864.867	1.6836	0.0123
865.533	1.6833	0.0124
866.198	1.6829	0.0124
866.863	1.6826	0.0124
867.529	1.6823	0.0125
868.194	1.6819	0.0125
868.859	1.6816	0.0125
869.525	1.6812	0.0126
870.19	1.6809	0.0126
870.855	1.6805	0.0127
871.521	1.6802	0.0127
872.186	1.6799	0.0127
872.851	1.6795	0.0128
873.517	1.6792	0.0128
874.182	1.6788	0.0128
874.847	1.6785	0.0129
875.513	1.6781	0.0129
876.178	1.6778	0.013
876.843	1.6774	0.013
877.509	1.6771	0.013
878.174	1.6767	0.0131
878.839	1.6764	0.0131
879.505	1.6761	0.0131
880.17	1.6757	0.0132
880.835	1.6754	0.0132
881.501	1.675	0.0133
882.166	1.6747	0.0133
882.831	1.6743	0.0133
883.497	1.674	0.0134
884.162	1.6736	0.0134
884.827	1.6733	0.0134
885.493	1.6729	0.0135
886.158	1.6726	0.0135
886.823	1.6722	0.0136
887.489	1.6719	0.0136
888.154	1.6715	0.0136
888.819	1.6712	0.0137
889.485	1.6708	0.0137
890.15	1.6705	0.0138
890.815	1.6701	0.0138
891.481	1.6698	0.0138
892.146	1.6694	0.0139
892.811	1.6691	0.0139
893.477	1.6687	0.014
894.142	1.6684	0.014
894.807	1.668	0.014
895.473	1.6677	0.0141
896.138	1.6673	0.0141
896.803	1.667	0.0142
897.469	1.6666	0.0142
898.134	1.6662	0.0142
898.799	1.6659	0.0143
899.465	1.6655	0.0143
900.13	1.6652	0.0144
900.795	1.6648	0.0144
901.461	1.6645	0.0144
902.126	1.6641	0.0145
902.791	1.6638	0.0145
903.457	1.6634	0.0146
904.122	1.6631	0.0146
904.787	1.6627	0.0147
905.453	1.6623	0.0147
906.118	1.662	0.0147
906.783	1.6616	0.0148
907.449	1.6613	0.0148
908.114	1.6609	0.0149
908.779	1.6605	0.0149
909.445	1.6602	0.015
910.11	1.6598	0.015
910.775	1.6595	0.015
911.441	1.6591	0.0151
912.106	1.6588	0.0151
912.771	1.6584	0.0152
913.437	1.658	0.0152
914.102	1.6577	0.0153
914.767	1.6573	0.0153
915.433	1.657	0.0153
916.098	1.6566	0.0154
916.763	1.6562	0.0154
917.429	1.6559	0.0155
918.094	1.6555	0.0155
918.759	1.6551	0.0156
919.425	1.6548	0.0156
920.09	1.6544	0.0156
920.755	1.6541	0.0157
921.421	1.6537	0.0157
922.086	1.6533	0.0158
922.751	1.653	0.0158
923.417	1.6526	0.0159
924.082	1.6522	0.0159
924.747	1.6519	0.016
925.413	1.6515	0.016
926.078	1.6511	0.016
926.743	1.6508	0.0161
927.409	1.6504	0.0161
928.074	1.65	0.0162
928.739	1.6497	0.0162
929.405	1.6493	0.0163
930.07	1.6489	0.0163
930.735	1.6486	0.0164
931.401	1.6482	0.0164
932.066	1.6478	0.0165
932.731	1.6475	0.0165
933.397	1.6471	0.0166
934.062	1.6467	0.0166
934.727	1.6464	0.0166
935.393	1.646	0.0167
936.058	1.6456	0.0167
936.723	1.6452	0.0168
937.389	1.6449	0.0168
938.054	1.6445	0.0169
938.719	1.6441	0.0169
939.385	1.6438	0.017
940.05	1.6434	0.017
940.715	1.643	0.0171
941.381	1.6426	0.0171
942.046	1.6423	0.0172
942.711	1.6419	0.0172
943.377	1.6415	0.0173
944.042	1.6411	0.0173
944.707	1.6408	0.0174
945.373	1.6404	0.0174
946.038	1.64	0.0175
946.703	1.6396	0.0175
947.369	1.6393	0.0176
948.034	1.6389	0.0176
948.699	1.6385	0.0177
949.365	1.6381	0.0177
950.03	1.6378	0.0178
950.695	1.6374	0.0178
951.361	1.637	0.0179
952.026	1.6366	0.0179
952.691	1.6363	0.018
953.357	1.6359	0.018
954.022	1.6355	0.0181
954.687	1.6351	0.0181
955.353	1.6347	0.0182
956.018	1.6344	0.0182
956.683	1.634	0.0183
957.349	1.6336	0.0183
958.014	1.6332	0.0184
958.679	1.6328	0.0184
959.345	1.6325	0.0185
960.01	1.6321	0.0185
960.675	1.6317	0.0186
961.341	1.6313	0.0186
962.006	1.6309	0.0187
962.671	1.6305	0.0187
963.337	1.6302	0.0188
964.002	1.6298	0.0188
964.667	1.6294	0.0189
965.333	1.629	0.0189
965.998	1.6286	0.019
966.663	1.6282	0.019
967.329	1.6278	0.0191
967.994	1.6275	0.0191
968.659	1.6271	0.0192
969.325	1.6267	0.0192
969.99	1.6263	0.0193
970.655	1.6259	0.0193
971.321	1.6255	0.0194
971.986	1.6251	0.0195
972.651	1.6248	0.0195
973.317	1.6244	0.0196
973.982	1.624	0.0196
974.647	1.6236	0.0197
975.313	1.6232	0.0197
975.978	1.6228	0.0198
976.643	1.6224	0.0198
977.309	1.622	0.0199
977.974	1.6216	0.0199
978.639	1.6212	0.02
979.305	1.6208	0.0201
979.97	1.6205	0.0201
980.635	1.6201	0.0202
981.301	1.6197	0.0202
981.966	1.6193	0.0203
982.631	1.6189	0.0203
983.297	1.6185	0.0204
983.962	1.6181	0.0204
984.627	1.6177	0.0205
985.293	1.6173	0.0206
985.958	1.6169	0.0206
986.623	1.6165	0.0207
987.289	1.6161	0.0207
987.954	1.6157	0.0208
988.619	1.6153	0.0208
989.285	1.6149	0.0209
989.95	1.6145	0.021
990.615	1.6141	0.021
991.281	1.6137	0.0211
991.946	1.6133	0.0211
992.611	1.6129	0.0212
993.277	1.6125	0.0212
993.942	1.6121	0.0213
994.607	1.6117	0.0214
995.273	1.6113	0.0214
995.938	1.6109	0.0215
996.603	1.6105	0.0215
997.269	1.6101	0.0216
997.934	1.6097	0.0217
998.599	1.6093	0.0217
999.265	1.6089	0.0218
999.93	1.6085	0.0218
1000.595	1.6081	0.0219
1001.261	1.6077	0.022
1001.926	1.6073	0.022
1002.591	1.6069	0.0221
1003.257	1.6065	0.0221
1003.922	1.6061	0.0222
1004.587	1.6057	0.0223
1005.253	1.6053	0.0223
1005.918	1.6049	0.0224
1006.583	1.6045	0.0224
1007.249	1.6041	0.0225
1007.914	1.6037	0.0226
1008.579	1.6032	0.0226
1009.245	1.6028	0.0227
1009.91	1.6024	0.0228
1010.575	1.602	0.0228
1011.241	1.6016	0.0229
1011.906	1.6012	0.0229
1012.571	1.6008	0.023
1013.237	1.6004	0.0231
1013.902	1.6	0.0231
1014.567	1.5996	0.0232
1015.233	1.5991	0.0233
1015.898	1.5987	0.0233
1016.563	1.5983	0.0234
1017.229	1.5979	0.0234
1017.894	1.5975	0.0235
1018.559	1.5971	0.0236
1019.225	1.5967	0.0236
1019.89	1.5962	0.0237
1020.555	1.5958	0.0238
1021.221	1.5954	0.0238
1021.886	1.595	0.0239
1022.551	1.5946	0.024
1023.217	1.5942	0.024
1023.882	1.5938	0.0241
1024.547	1.5933	0.0242
1025.213	1.5929	0.0242
1025.878	1.5925	0.0243
1026.543	1.5921	0.0244
1027.209	1.5917	0.0244
1027.874	1.5912	0.0245
1028.539	1.5908	0.0246
1029.205	1.5904	0.0246
1029.87	1.59	0.0247
1030.535	1.5896	0.0248
1031.201	1.5891	0.0248
1031.866	1.5887	0.0249
1032.531	1.5883	0.025
1033.197	1.5879	0.025
1033.862	1.5874	0.0251
1034.527	1.587	0.0252
1035.193	1.5866	0.0252
1035.858	1.5862	0.0253
1036.523	1.5858	0.0254
1037.189	1.5853	0.0254
1037.854	1.5849	0.0255
1038.519	1.5845	0.0256
1039.185	1.584	0.0256
1039.85	1.5836	0.0257
1040.515	1.5832	0.0258
1041.181	1.5828	0.0258
1041.846	1.5823	0.0259
1042.511	1.5819	0.026
1043.177	1.5815	0.0261
1043.842	1.581	0.0261
1044.507	1.5806	0.0262
1045.173	1.5802	0.0263
1045.838	1.5798	0.0263
1046.503	1.5793	0.0264
1047.169	1.5789	0.0265
1047.834	1.5785	0.0266
1048.499	1.578	0.0266
1049.165	1.5776	0.0267
1049.83	1.5772	0.0268
1050.495	1.5767	0.0268
1051.161	1.5763	0.0269
1051.826	1.5759	0.027
1052.491	1.5754	0.0271
1053.157	1.575	0.0271
1053.822	1.5746	0.0272
1054.487	1.5741	0.0273
1055.153	1.5737	0.0274
1055.818	1.5732	0.0274
1056.483	1.5728	0.0275
1057.149	1.5724	0.0276
1057.814	1.5719	0.0277
1058.479	1.5715	0.0277
1059.145	1.5711	0.0278
1059.81	1.5706	0.0279
1060.475	1.5702	0.028
1061.141	1.5697	0.028
1061.806	1.5693	0.0281
1062.471	1.5688	0.0282
1063.137	1.5684	0.0283
1063.802	1.568	0.0283
1064.467	1.5675	0.0284
1065.133	1.5671	0.0285
1065.798	1.5666	0.0286
1066.463	1.5662	0.0286
1067.129	1.5657	0.0287
1067.794	1.5653	0.0288
1068.459	1.5649	0.0289
1069.125	1.5644	0.0289
1069.79	1.564	0.029
1070.455	1.5635	0.0291
1071.121	1.5631	0.0292
1071.786	1.5626	0.0293
1072.451	1.5622	0.0293
1073.117	1.5617	0.0294
1073.782	1.5613	0.0295
1074.447	1.5608	0.0296
1075.113	1.5604	0.0297
1075.778	1.5599	0.0297
1076.443	1.5595	0.0298
1077.109	1.559	0.0299
1077.774	1.5586	0.03
1078.439	1.5581	0.0301
1079.105	1.5577	0.0301
1079.77	1.5572	0.0302
1080.435	1.5568	0.0303
1081.101	1.5563	0.0304
1081.766	1.5558	0.0305
1082.431	1.5554	0.0305
1083.097	1.5549	0.0306
1083.762	1.5545	0.0307
1084.427	1.554	0.0308
1085.093	1.5536	0.0309
1085.758	1.5531	0.031
1086.423	1.5526	0.031
1087.089	1.5522	0.0311
1087.754	1.5517	0.0312
1088.419	1.5513	0.0313
1089.085	1.5508	0.0314
1089.75	1.5503	0.0315
1090.415	1.5499	0.0315
1091.081	1.5494	0.0316
1091.746	1.549	0.0317
1092.411	1.5485	0.0318
1093.077	1.548	0.0319
1093.742	1.5476	0.032
1094.407	1.5471	0.0321
1095.073	1.5466	0.0321
1095.738	1.5462	0.0322
1096.403	1.5457	0.0323
1097.069	1.5453	0.0324
1097.734	1.5448	0.0325
1098.399	1.5443	0.0326
1099.065	1.5439	0.0327
1099.73	1.5434	0.0327
1100.395	1.5429	0.0328
1101.061	1.5424	0.0329
1101.726	1.542	0.033
1102.391	1.5415	0.0331
1103.057	1.541	0.0332
1103.722	1.5406	0.0333
1104.387	1.5401	0.0334
1105.053	1.5396	0.0335
1105.718	1.5392	0.0335
1106.383	1.5387	0.0336
1107.049	1.5382	0.0337
1107.714	1.5377	0.0338
1108.379	1.5373	0.0339
1109.045	1.5368	0.034
1109.71	1.5363	0.0341
1110.375	1.5358	0.0342
1111.041	1.5354	0.0343
1111.706	1.5349	0.0344
1112.371	1.5344	0.0345
1113.037	1.5339	0.0345
1113.702	1.5334	0.0346
1114.367	1.533	0.0347
1115.033	1.5325	0.0348
1115.698	1.532	0.0349
1116.363	1.5315	0.035
1117.029	1.531	0.0351
1117.694	1.5306	0.0352
1118.359	1.5301	0.0353
1119.025	1.5296	0.0354
1119.69	1.5291	0.0355
1120.355	1.5286	0.0356
1121.021	1.5282	0.0357
1121.686	1.5277	0.0358
1122.351	1.5272	0.0359
1123.017	1.5267	0.036
1123.682	1.5262	0.0361
1124.347	1.5257	0.0361
1125.013	1.5252	0.0362
1125.678	1.5248	0.0363
1126.343	1.5243	0.0364
1127.009	1.5238	0.0365
1127.674	1.5233	0.0366
1128.339	1.5228	0.0367
1129.005	1.5223	0.0368
1129.67	1.5218	0.0369
1130.335	1.5213	0.037
1131.001	1.5208	0.0371
1131.666	1.5203	0.0372
1132.331	1.5198	0.0373
1132.996	1.5194	0.0374
1133.662	1.5189	0.0375
1134.327	1.5184	0.0376
1134.992	1.5179	0.0377
1135.658	1.5174	0.0378
1136.323	1.5169	0.0379
1136.988	1.5164	0.038
1137.654	1.5159	0.0381
1138.319	1.5154	0.0382
1138.984	1.5149	0.0383
1139.65	1.5144	0.0384
1140.315	1.5139	0.0385
1140.98	1.5134	0.0386
1141.646	1.5129	0.0387
1142.311	1.5124	0.0388
1142.976	1.5119	0.039
1143.642	1.5114	0.0391
1144.307	1.5109	0.0392
1144.972	1.5104	0.0393
1145.638	1.5099	0.0394
1146.303	1.5094	0.0395
1146.968	1.5089	0.0396
1147.634	1.5084	0.0397
1148.299	1.5079	0.0398
1148.964	1.5074	0.0399
1149.63	1.5068	0.04
1150.295	1.5063	0.0401
1150.96	1.5058	0.0402
1151.626	1.5053	0.0403
1152.291	1.5048	0.0404
1152.956	1.5043	0.0405
1153.622	1.5038	0.0406
1154.287	1.5033	0.0408
1154.952	1.5028	0.0409
1155.618	1.5023	0.041
1156.283	1.5017	0.0411
1156.948	1.5012	0.0412
1157.614	1.5007	0.0413
1158.279	1.5002	0.0414
1158.944	1.4997	0.0415
1159.61	1.4992	0.0416
1160.275	1.4987	0.0417
1160.94	1.4981	0.0419
1161.606	1.4976	0.042
1162.271	1.4971	0.0421
1162.936	1.4966	0.0422
1163.602	1.4961	0.0423
1164.267	1.4956	0.0424
1164.932	1.495	0.0425
1165.598	1.4945	0.0426
1166.263	1.494	0.0428
1166.928	1.4935	0.0429
1167.594	1.4929	0.043
1168.259	1.4924	0.0431
1168.924	1.4919	0.0432
1169.59	1.4914	0.0433
1170.255	1.4909	0.0434
1170.92	1.4903	0.0436
1171.586	1.4898	0.0437
1172.251	1.4893	0.0438
1172.916	1.4887	0.0439
1173.582	1.4882	0.044
1174.247	1.4877	0.0441
1174.912	1.4872	0.0443
1175.578	1.4866	0.0444
1176.243	1.4861	0.0445
1176.908	1.4856	0.0446
1177.574	1.485	0.0447
1178.239	1.4845	0.0449
1178.904	1.484	0.045
1179.57	1.4834	0.0451
1180.235	1.4829	0.0452
1180.9	1.4824	0.0453
1181.566	1.4818	0.0455
1182.231	1.4813	0.0456
1182.896	1.4808	0.0457
1183.562	1.4802	0.0458
1184.227	1.4797	0.0459
1184.892	1.4792	0.0461
1185.558	1.4786	0.0462
1186.223	1.4781	0.0463
1186.888	1.4775	0.0464
1187.554	1.477	0.0466
1188.219	1.4765	0.0467
1188.884	1.4759	0.0468
1189.55	1.4754	0.0469
1190.215	1.4748	0.0471
1190.88	1.4743	0.0472
1191.546	1.4738	0.0473
1192.211	1.4732	0.0474
1192.876	1.4727	0.0476
1193.542	1.4721	0.0477
1194.207	1.4716	0.0478
1194.872	1.471	0.048
1195.538	1.4705	0.0481
1196.203	1.4699	0.0482
1196.868	1.4694	0.0483
1197.534	1.4688	0.0485
1198.199	1.4683	0.0486
1198.864	1.4677	0.0487
1199.53	1.4672	0.0489
1200.195	1.4666	0.049
1200.86	1.4661	0.0491
1201.526	1.4655	0.0493
1202.191	1.465	0.0494
1202.856	1.4644	0.0495
1203.522	1.4639	0.0496
1204.187	1.4633	0.0498
1204.852	1.4627	0.0499
1205.518	1.4622	0.05
1206.183	1.4616	0.0502
1206.848	1.4611	0.0503
1207.514	1.4605	0.0504
1208.179	1.46	0.0506
1208.844	1.4594	0.0507
1209.51	1.4588	0.0509
1210.175	1.4583	0.051
1210.84	1.4577	0.0511
1211.506	1.4571	0.0513
1212.171	1.4566	0.0514
1212.836	1.456	0.0515
1213.502	1.4555	0.0517
1214.167	1.4549	0.0518
1214.832	1.4543	0.052
1215.498	1.4538	0.0521
1216.163	1.4532	0.0522
1216.828	1.4526	0.0524
1217.494	1.4521	0.0525
1218.159	1.4515	0.0527
1218.824	1.4509	0.0528
1219.49	1.4503	0.0529
1220.155	1.4498	0.0531
1220.82	1.4492	0.0532
1221.486	1.4486	0.0534
1222.151	1.4481	0.0535
1222.816	1.4475	0.0536
1223.482	1.4469	0.0538
1224.147	1.4463	0.0539
1224.812	1.4458	0.0541
1225.478	1.4452	0.0542
1226.143	1.4446	0.0544
1226.808	1.444	0.0545
1227.474	1.4434	0.0547
1228.139	1.4429	0.0548
1228.804	1.4423	0.055
1229.47	1.4417	0.0551
1230.135	1.4411	0.0553
1230.8	1.4405	0.0554
1231.466	1.44	0.0555
1232.131	1.4394	0.0557
1232.796	1.4388	0.0558
1233.462	1.4382	0.056
1234.127	1.4376	0.0561
1234.792	1.437	0.0563
1235.458	1.4364	0.0565
1236.123	1.4359	0.0566
1236.788	1.4353	0.0568
1237.454	1.4347	0.0569
1238.119	1.4341	0.0571
1238.784	1.4335	0.0572
1239.45	1.4329	0.0574
1240.115	1.4323	0.0575
1240.78	1.4317	0.0577
1241.446	1.4311	0.0578
1242.111	1.4305	0.058
1242.776	1.4299	0.0581
1243.442	1.4293	0.0583
1244.107	1.4288	0.0585
1244.772	1.4282	0.0586
1245.438	1.4276	0.0588
1246.103	1.427	0.0589
1246.768	1.4264	0.0591
1247.434	1.4258	0.0592
1248.099	1.4252	0.0594
1248.764	1.4246	0.0596
1249.43	1.424	0.0597
1250.095	1.4234	0.0599
1250.76	1.4228	0.06
1251.426	1.4222	0.0602
1252.091	1.4215	0.0604
1252.756	1.4209	0.0605
1253.422	1.4203	0.0607
1254.087	1.4197	0.0609
1254.752	1.4191	0.061
1255.418	1.4185	0.0612
1256.083	1.4179	0.0614
1256.748	1.4173	0.0615
1257.414	1.4167	0.0617
1258.079	1.4161	0.0619
1258.744	1.4155	0.062
1259.41	1.4148	0.0622
1260.075	1.4142	0.0624
1260.74	1.4136	0.0625
1261.406	1.413	0.0627
1262.071	1.4124	0.0629
1262.736	1.4118	0.063
1263.402	1.4112	0.0632
1264.067	1.4105	0.0634
1264.732	1.4099	0.0635
1265.398	1.4093	0.0637
1266.063	1.4087	0.0639
1266.728	1.4081	0.0641
1267.394	1.4074	0.0642
1268.059	1.4068	0.0644
1268.724	1.4062	0.0646
1269.39	1.4056	0.0648
1270.055	1.4049	0.0649
1270.72	1.4043	0.0651
1271.386	1.4037	0.0653
1272.051	1.4031	0.0655
1272.716	1.4024	0.0656
1273.382	1.4018	0.0658
1274.047	1.4012	0.066
1274.712	1.4006	0.0662
1275.378	1.3999	0.0664
1276.043	1.3993	0.0665
1276.708	1.3987	0.0667
1277.374	1.398	0.0669
1278.039	1.3974	0.0671
1278.704	1.3968	0.0673
1279.37	1.3961	0.0674
1280.035	1.3955	0.0676
1280.7	1.3949	0.0678
1281.366	1.3942	0.068
1282.031	1.3936	0.0682
1282.696	1.3929	0.0684
1283.362	1.3923	0.0685
1284.027	1.3917	0.0687
1284.692	1.391	0.0689
1285.358	1.3904	0.0691
1286.023	1.3897	0.0693
1286.688	1.3891	0.0695
1287.354	1.3884	0.0697
1288.019	1.3878	0.0699
1288.684	1.3872	0.07
1289.35	1.3865	0.0702
1290.015	1.3859	0.0704
1290.68	1.3852	0.0706
1291.346	1.3846	0.0708
1292.011	1.3839	0.071
1292.676	1.3833	0.0712
1293.342	1.3826	0.0714
1294.007	1.382	0.0716
1294.672	1.3813	0.0718
1295.338	1.3807	0.072
1296.003	1.38	0.0722
1296.668	1.3793	0.0724
1297.334	1.3787	0.0726
1297.999	1.378	0.0728
1298.664	1.3774	0.073
1299.33	1.3767	0.0732
1299.995	1.3761	0.0734
1300.66	1.3754	0.0736
1301.326	1.3747	0.0738
1301.991	1.3741	0.074
1302.656	1.3734	0.0742
1303.322	1.3727	0.0744
1303.987	1.3721	0.0746
1304.652	1.3714	0.0748
1305.318	1.3707	0.075
1305.983	1.3701	0.0752
1306.648	1.3694	0.0754
1307.314	1.3687	0.0756
1307.979	1.3681	0.0758
1308.644	1.3674	0.076
1309.31	1.3667	0.0762
1309.975	1.3661	0.0764
1310.64	1.3654	0.0766
1311.306	1.3647	0.0768
1311.971	1.364	0.0771
1312.636	1.3634	0.0773
1313.302	1.3627	0.0775
1313.967	1.362	0.0777
1314.632	1.3613	0.0779
1315.298	1.3607	0.0781
1315.963	1.36	0.0783
1316.628	1.3593	0.0786
1317.294	1.3586	0.0788
1317.959	1.3579	0.079
1318.624	1.3572	0.0792
1319.29	1.3566	0.0794
1319.955	1.3559	0.0796
1320.62	1.3552	0.0799
1321.286	1.3545	0.0801
1321.951	1.3538	0.0803
1322.616	1.3531	0.0805
1323.282	1.3524	0.0807
1323.947	1.3517	0.081
1324.612	1.3511	0.0812
1325.278	1.3504	0.0814
1325.943	1.3497	0.0816
1326.608	1.349	0.0819
1327.274	1.3483	0.0821
1327.939	1.3476	0.0823
1328.604	1.3469	0.0825
1329.27	1.3462	0.0828
1329.935	1.3455	0.083
1330.6	1.3448	0.0832
1331.266	1.3441	0.0835
1331.931	1.3434	0.0837
1332.596	1.3427	0.0839
1333.262	1.342	0.0841
1333.927	1.3413	0.0844
1334.592	1.3406	0.0846
1335.258	1.3399	0.0848
1335.923	1.3392	0.0851
1336.588	1.3385	0.0853
1337.254	1.3378	0.0855
1337.919	1.3371	0.0858
1338.584	1.3364	0.086
1339.25	1.3356	0.0863
1339.915	1.3349	0.0865
1340.58	1.3342	0.0867
1341.246	1.3335	0.087
1341.911	1.3328	0.0872
1342.576	1.3321	0.0875
1343.242	1.3314	0.0877
1343.907	1.3306	0.088
1344.572	1.3299	0.0882
1345.238	1.3292	0.0884
1345.903	1.3285	0.0887
1346.568	1.3278	0.0889
1347.234	1.327	0.0892
1347.899	1.3263	0.0894
1348.564	1.3256	0.0897
1349.23	1.3249	0.0899
1349.895	1.3242	0.0902
1350.56	1.3234	0.0904
1351.226	1.3227	0.0907
1351.891	1.322	0.0909
1352.556	1.3212	0.0912
1353.222	1.3205	0.0914
1353.887	1.3198	0.0917
1354.552	1.3191	0.092
1355.218	1.3183	0.0922
1355.883	1.3176	0.0925
1356.548	1.3169	0.0927
1357.214	1.3161	0.093
1357.879	1.3154	0.0932
1358.544	1.3147	0.0935
1359.21	1.3139	0.0938
1359.875	1.3132	0.094
1360.54	1.3124	0.0943
1361.206	1.3117	0.0946
1361.871	1.311	0.0948
1362.536	1.3102	0.0951
1363.202	1.3095	0.0954
1363.867	1.3087	0.0956
1364.532	1.308	0.0959
1365.198	1.3072	0.0962
1365.863	1.3065	0.0964
1366.528	1.3057	0.0967
1367.194	1.305	0.097
1367.859	1.3042	0.0972
1368.524	1.3035	0.0975
1369.19	1.3027	0.0978
1369.855	1.302	0.0981
1370.52	1.3012	0.0983
1371.186	1.3005	0.0986
1371.851	1.2997	0.0989
1372.516	1.299	0.0992
1373.182	1.2982	0.0994
1373.847	1.2974	0.0997
1374.512	1.2967	0.1
1375.178	1.2959	0.1003
1375.843	1.2952	0.1006
1376.508	1.2944	0.1009
1377.174	1.2936	0.1011
1377.839	1.2929	0.1014
1378.504	1.2921	0.1017
1379.17	1.2913	0.102
1379.835	1.2906	0.1023
1380.5	1.2898	0.1026
1381.166	1.289	0.1029
1381.831	1.2883	0.1032
1382.496	1.2875	0.1035
1383.162	1.2867	0.1037
1383.827	1.2859	0.104
1384.492	1.2852	0.1043
1385.158	1.2844	0.1046
1385.823	1.2836	0.1049
1386.488	1.2828	0.1052
1387.154	1.2821	0.1055
1387.819	1.2813	0.1058
1388.484	1.2805	0.1061
1389.15	1.2797	0.1064
1389.815	1.2789	0.1067
1390.48	1.2781	0.107
1391.146	1.2774	0.1073
1391.811	1.2766	0.1076
1392.476	1.2758	0.1079
1393.142	1.275	0.1083
1393.807	1.2742	0.1086
1394.472	1.2734	0.1089
1395.138	1.2726	0.1092
1395.803	1.2718	0.1095
1396.468	1.271	0.1098
1397.134	1.2703	0.1101
1397.799	1.2695	0.1104
1398.464	1.2687	0.1108
1399.13	1.2679	0.1111
1399.795	1.2671	0.1114
1400.46	1.2663	0.1117
1401.126	1.2655	0.112
1401.791	1.2647	0.1123
1402.456	1.2639	0.1127
1403.122	1.2631	0.113
1403.787	1.2623	0.1133
1404.452	1.2615	0.1136
1405.118	1.2606	0.114
1405.783	1.2598	0.1143
1406.448	1.259	0.1146
1407.114	1.2582	0.1149
1407.779	1.2574	0.1153
1408.444	1.2566	0.1156
1409.11	1.2558	0.1159
1409.775	1.255	0.1163
1410.44	1.2542	0.1166
1411.106	1.2533	0.1169
1411.771	1.2525	0.1173
1412.436	1.2517	0.1176
1413.102	1.2509	0.118
1413.767	1.2501	0.1183
1414.432	1.2492	0.1186
1415.098	1.2484	0.119
1415.763	1.2476	0.1193
1416.428	1.2468	0.1197
1417.094	1.2459	0.12
1417.759	1.2451	0.1204
1418.424	1.2443	0.1207
1419.09	1.2435	0.1211
1419.755	1.2426	0.1214
1420.42	1.2418	0.1218
1421.086	1.241	0.1221
1421.751	1.2401	0.1225
1422.416	1.2393	0.1228
1423.082	1.2385	0.1232
1423.747	1.2376	0.1235
1424.412	1.2368	0.1239
1425.078	1.236	0.1243
1425.743	1.2351	0.1246
1426.408	1.2343	0.125
1427.074	1.2334	0.1254
1427.739	1.2326	0.1257
1428.404	1.2317	0.1261
1429.07	1.2309	0.1265
1429.735	1.2301	0.1268
1430.4	1.2292	0.1272
1431.066	1.2284	0.1276
1431.731	1.2275	0.1279
1432.396	1.2267	0.1283
1433.062	1.2258	0.1287
1433.727	1.225	0.1291
1434.392	1.2241	0.1294
1435.058	1.2232	0.1298
1435.723	1.2224	0.1302
1436.388	1.2215	0.1306
1437.054	1.2207	0.131
1437.719	1.2198	0.1313
1438.384	1.219	0.1317
1439.05	1.2181	0.1321
1439.715	1.2172	0.1325
1440.38	1.2164	0.1329
1441.046	1.2155	0.1333
1441.711	1.2146	0.1337
1442.376	1.2138	0.1341
1443.042	1.2129	0.1345
1443.707	1.212	0.1349
1444.372	1.2112	0.1353
1445.038	1.2103	0.1357
1445.703	1.2094	0.1361
1446.368	1.2085	0.1365
1447.034	1.2077	0.1369
1447.699	1.2068	0.1373
1448.364	1.2059	0.1377
1449.03	1.205	0.1381
1449.695	1.2042	0.1385
1450.36	1.2033	0.1389
1451.026	1.2024	0.1393
1451.691	1.2015	0.1397
1452.356	1.2006	0.1401
1453.022	1.1997	0.1406
1453.687	1.1989	0.141
1454.352	1.198	0.1414
1455.018	1.1971	0.1418
1455.683	1.1962	0.1422
1456.348	1.1953	0.1427
1457.014	1.1944	0.1431
1457.679	1.1935	0.1435
1458.344	1.1926	0.1439
1459.01	1.1917	0.1444
1459.675	1.1908	0.1448
1460.34	1.1899	0.1452
1461.006	1.189	0.1457
1461.671	1.1881	0.1461
1462.336	1.1872	0.1465
1463.002	1.1863	0.147
1463.667	1.1854	0.1474
1464.332	1.1845	0.1478
1464.997	1.1836	0.1483
1465.663	1.1827	0.1487
1466.328	1.1818	0.1492
1466.993	1.1809	0.1496
1467.659	1.18	0.1501
1468.324	1.1791	0.1505
1468.989	1.1781	0.151
1469.655	1.1772	0.1514
1470.32	1.1763	0.1519
1470.985	1.1754	0.1523
1471.651	1.1745	0.1528
1472.316	1.1736	0.1533
1472.981	1.1726	0.1537
1473.647	1.1717	0.1542
1474.312	1.1708	0.1547
1474.977	1.1699	0.1551
1475.643	1.1689	0.1556
1476.308	1.168	0.1561
1476.973	1.1671	0.1565
1477.639	1.1662	0.157
1478.304	1.1652	0.1575
1478.969	1.1643	0.158
1479.635	1.1634	0.1584
1480.3	1.1624	0.1589
1480.965	1.1615	0.1594
1481.631	1.1606	0.1599
1482.296	1.1596	0.1604
1482.961	1.1587	0.1609
1483.627	1.1578	0.1614
1484.292	1.1568	0.1618
1484.957	1.1559	0.1623
1485.623	1.1549	0.1628
1486.288	1.154	0.1633
1486.953	1.153	0.1638
1487.619	1.1521	0.1643
1488.284	1.1512	0.1648
1488.949	1.1502	0.1653
1489.615	1.1493	0.1658
1490.28	1.1483	0.1663
1490.945	1.1474	0.1669
1491.611	1.1464	0.1674
1492.276	1.1454	0.1679
1492.941	1.1445	0.1684
1493.607	1.1435	0.1689
1494.272	1.1426	0.1694
1494.937	1.1416	0.1699
1495.603	1.1407	0.1705
1496.268	1.1397	0.171
1496.933	1.1387	0.1715
1497.599	1.1378	0.172
1498.264	1.1368	0.1726
1498.929	1.1358	0.1731
1499.595	1.1349	0.1736
1500.26	1.1339	0.1742
1500.925	1.1329	0.1747
1501.591	1.132	0.1753
1502.256	1.131	0.1758
1502.921	1.13	0.1763
1503.587	1.129	0.1769
1504.252	1.1281	0.1774
1504.917	1.1271	0.178
1505.583	1.1261	0.1785
1506.248	1.1251	0.1791
1506.913	1.1242	0.1797
1507.579	1.1232	0.1802
1508.244	1.1222	0.1808
1508.909	1.1212	0.1813
1509.575	1.1202	0.1819
1510.24	1.1192	0.1825
1510.905	1.1183	0.183
1511.571	1.1173	0.1836
1512.236	1.1163	0.1842
1512.901	1.1153	0.1848
1513.567	1.1143	0.1853
1514.232	1.1133	0.1859
1514.897	1.1123	0.1865
1515.563	1.1113	0.1871
1516.228	1.1103	0.1877
1516.893	1.1093	0.1883
1517.559	1.1083	0.1888
1518.224	1.1073	0.1894
1518.889	1.1063	0.19
1519.555	1.1053	0.1906
1520.22	1.1043	0.1912
1520.885	1.1033	0.1918
1521.551	1.1023	0.1924
1522.216	1.1013	0.193
1522.881	1.1003	0.1937
1523.547	1.0993	0.1943
1524.212	1.0983	0.1949
1524.877	1.0973	0.1955
1525.543	1.0963	0.1961
1526.208	1.0952	0.1967
1526.873	1.0942	0.1974
1527.539	1.0932	0.198
1528.204	1.0922	0.1986
1528.869	1.0912	0.1992
1529.535	1.0902	0.1999
1530.2	1.0891	0.2005
1530.865	1.0881	0.2011
1531.531	1.0871	0.2018
1532.196	1.0861	0.2024
1532.861	1.085	0.2031
1533.527	1.084	0.2037
1534.192	1.083	0.2044
1534.857	1.082	0.205
1535.523	1.0809	0.2057
1536.188	1.0799	0.2063
1536.853	1.0789	0.207
1537.519	1.0778	0.2076
1538.184	1.0768	0.2083
1538.849	1.0758	0.209
1539.515	1.0747	0.2096
1540.18	1.0737	0.2103
1540.845	1.0727	0.211
1541.511	1.0716	0.2117
1542.176	1.0706	0.2124
1542.841	1.0696	0.213
1543.507	1.0685	0.2137
1544.172	1.0675	0.2144
1544.837	1.0664	0.2151
1545.503	1.0654	0.2158
1546.168	1.0643	0.2165
1546.833	1.0633	0.2172
1547.499	1.0622	0.2179
1548.164	1.0612	0.2186
1548.829	1.0601	0.2193
1549.495	1.0591	0.22
1550.16	1.058	0.2207
1550.825	1.057	0.2214
1551.491	1.0559	0.2222
1552.156	1.0549	0.2229
1552.821	1.0538	0.2236
1553.487	1.0528	0.2243
1554.152	1.0517	0.2251
1554.817	1.0506	0.2258
1555.483	1.0496	0.2265
1556.148	1.0485	0.2273
1556.813	1.0475	0.228
1557.479	1.0464	0.2287
1558.144	1.0453	0.2295
1558.809	1.0443	0.2302
1559.475	1.0432	0.231
1560.14	1.0421	0.2318
1560.805	1.0411	0.2325
1561.471	1.04	0.2333
1562.136	1.0389	0.234
1562.801	1.0379	0.2348
1563.467	1.0368	0.2356
1564.132	1.0357	0.2363
1564.797	1.0346	0.2371
1565.463	1.0336	0.2379
1566.128	1.0325	0.2387
1566.793	1.0314	0.2395
1567.459	1.0303	0.2403
1568.124	1.0293	0.2411
1568.789	1.0282	0.2418
1569.455	1.0271	0.2426
1570.12	1.026	0.2434
1570.785	1.0249	0.2443
1571.451	1.0239	0.2451
1572.116	1.0228	0.2459
1572.781	1.0217	0.2467
1573.447	1.0206	0.2475
1574.112	1.0195	0.2483
1574.777	1.0184	0.2491
1575.443	1.0174	0.25
1576.108	1.0163	0.2508
1576.773	1.0152	0.2516
1577.439	1.0141	0.2525
1578.104	1.013	0.2533
1578.769	1.0119	0.2542
1579.435	1.0108	0.255
1580.1	1.0097	0.2559
1580.765	1.0086	0.2567
1581.431	1.0075	0.2576
1582.096	1.0064	0.2584
1582.761	1.0053	0.2593
1583.427	1.0043	0.2602
1584.092	1.0032	0.261
1584.757	1.0021	0.2619
1585.423	1.001	0.2628
1586.088	0.9999	0.2637
1586.753	0.9988	0.2645
1587.419	0.9977	0.2654
1588.084	0.9966	0.2663
1588.749	0.9955	0.2672
1589.415	0.9944	0.2681
1590.08	0.9933	0.269
1590.745	0.9922	0.2699
1591.411	0.9911	0.2708
1592.076	0.99	0.2718
1592.741	0.9889	0.2727
1593.407	0.9877	0.2736
1594.072	0.9866	0.2745
1594.737	0.9855	0.2754
1595.403	0.9844	0.2764
1596.068	0.9833	0.2773
1596.733	0.9822	0.2782
1597.399	0.9811	0.2792
1598.064	0.98	0.2801
1598.729	0.9789	0.2811
1599.395	0.9778	0.282
1600.06	0.9767	0.283
1600.725	0.9756	0.284
1601.391	0.9745	0.2849
1602.056	0.9733	0.2859
1602.721	0.9722	0.2869
1603.387	0.9711	0.2878
1604.052	0.97	0.2888
1604.717	0.9689	0.2898
1605.383	0.9678	0.2908
1606.048	0.9667	0.2918
1606.713	0.9656	0.2928
1607.379	0.9645	0.2938
1608.044	0.9633	0.2948
1608.709	0.9622	0.2958
1609.375	0.9611	0.2968
1610.04	0.96	0.2978
1610.705	0.9589	0.2988
1611.371	0.9578	0.2999
1612.036	0.9567	0.3009
1612.701	0.9556	0.3019
1613.367	0.9544	0.303
1614.032	0.9533	0.304
1614.697	0.9522	0.305
1615.363	0.9511	0.3061
1616.028	0.95	0.3071
1616.693	0.9489	0.3082
1617.359	0.9478	0.3093
1618.024	0.9466	0.3103
1618.689	0.9455	0.3114
1619.355	0.9444	0.3125
1620.02	0.9433	0.3136
1620.685	0.9422	0.3146
1621.351	0.9411	0.3157
1622.016	0.94	0.3168
1622.681	0.9388	0.3179
1623.347	0.9377	0.319
1624.012	0.9366	0.3201
1624.677	0.9355	0.3212
1625.343	0.9344	0.3223
1626.008	0.9333	0.3234
1626.673	0.9322	0.3246
1627.339	0.9311	0.3257
1628.004	0.9299	0.3268
1628.669	0.9288	0.3279
1629.335	0.9277	0.3291
1630	0.9266	0.3302