// thickness-independent fraction of light power (for rudimentary optics) between 0 and 1
simple transmission coefficient:
1

// wavelength-independent absorption coefficient 'a' according to I(z)=I0*exp(-a*z) in [1/m]
lambert beer absorption coefficient:
93340

// three-column refractive data for TMM calculations with wavelength [nm], n, k (must be tab-separated)
refractive data:
300	2.2807	0.3212
300.665	2.2807	0.3178
301.331	2.2807	0.3145
301.996	2.2806	0.3111
302.661	2.2805	0.3077
303.327	2.2804	0.3043
303.992	2.2803	0.301
304.657	2.2802	0.2976
305.323	2.28	0.2943
305.988	2.2798	0.291
306.653	2.2795	0.2876
307.319	2.2793	0.2843
307.984	2.279	0.281
308.649	2.2787	0.2777
309.315	2.2784	0.2744
309.98	2.278	0.2712
310.645	2.2777	0.2679
311.311	2.2773	0.2646
311.976	2.2769	0.2614
312.641	2.2764	0.2581
313.307	2.276	0.2549
313.972	2.2755	0.2517
314.637	2.275	0.2485
315.303	2.2744	0.2453
315.968	2.2739	0.2421
316.633	2.2733	0.2389
317.299	2.2727	0.2358
317.964	2.272	0.2326
318.629	2.2714	0.2295
319.295	2.2707	0.2263
319.96	2.27	0.2232
320.625	2.2693	0.2201
321.291	2.2686	0.217
321.956	2.2678	0.2139
322.621	2.267	0.2109
323.287	2.2662	0.2078
323.952	2.2654	0.2048
324.617	2.2645	0.2018
325.283	2.2636	0.1987
325.948	2.2627	0.1957
326.613	2.2618	0.1928
327.279	2.2609	0.1898
327.944	2.2599	0.1868
328.609	2.2589	0.1839
329.275	2.2579	0.1809
329.94	2.2569	0.178
330.605	2.2558	0.1751
331.271	2.2548	0.1722
331.936	2.2537	0.1694
332.601	2.2525	0.1665
333.267	2.2514	0.1637
333.932	2.2502	0.1609
334.597	2.2491	0.1581
335.263	2.2479	0.1553
335.928	2.2466	0.1525
336.593	2.2454	0.1497
337.259	2.2441	0.147
337.924	2.2428	0.1443
338.589	2.2415	0.1416
339.255	2.2402	0.1389
339.92	2.2389	0.1362
340.585	2.2375	0.1336
341.251	2.2361	0.1309
341.916	2.2347	0.1283
342.581	2.2333	0.1257
343.247	2.2318	0.1231
343.912	2.2304	0.1206
344.577	2.2289	0.118
345.243	2.2274	0.1155
345.908	2.2259	0.113
346.573	2.2243	0.1105
347.239	2.2228	0.1081
347.904	2.2212	0.1057
348.569	2.2196	0.1032
349.235	2.218	0.1008
349.9	2.2164	0.0985
350.565	2.2147	0.0961
351.231	2.213	0.0938
351.896	2.2114	0.0915
352.561	2.2097	0.0892
353.227	2.2079	0.0869
353.892	2.2062	0.0847
354.557	2.2044	0.0825
355.223	2.2027	0.0803
355.888	2.2009	0.0781
356.553	2.1991	0.0759
357.219	2.1973	0.0738
357.884	2.1954	0.0717
358.549	2.1936	0.0696
359.215	2.1917	0.0676
359.88	2.1898	0.0656
360.545	2.1879	0.0636
361.211	2.186	0.0616
361.876	2.1841	0.0596
362.541	2.1821	0.0577
363.207	2.1802	0.0558
363.872	2.1782	0.0539
364.537	2.1762	0.0521
365.203	2.1742	0.0503
365.868	2.1722	0.0485
366.533	2.1702	0.0467
367.199	2.1682	0.045
367.864	2.1661	0.0433
368.529	2.1641	0.0416
369.195	2.162	0.04
369.86	2.1599	0.0384
370.525	2.1579	0.0368
371.191	2.1558	0.0352
371.856	2.1536	0.0337
372.521	2.1515	0.0322
373.187	2.1494	0.0308
373.852	2.1473	0.0293
374.517	2.1451	0.0279
375.183	2.143	0.0266
375.848	2.1408	0.0252
376.513	2.1386	0.0239
377.179	2.1365	0.0226
377.844	2.1343	0.0214
378.509	2.1321	0.0202
379.175	2.1299	0.019
379.84	2.1277	0.0179
380.505	2.1255	0.0168
381.171	2.1233	0.0157
381.836	2.1211	0.0147
382.501	2.1189	0.0137
383.167	2.1167	0.0128
383.832	2.1145	0.0118
384.497	2.1123	0.011
385.163	2.1101	0.0101
385.828	2.1079	0.0093
386.493	2.1057	0.0085
387.159	2.1035	0.0078
387.824	2.1014	0.0071
388.489	2.0992	0.0065
389.155	2.097	0.0058
389.82	2.0948	0.0053
390.485	2.0927	0.0047
391.151	2.0905	0.0042
391.816	2.0884	0.0038
392.481	2.0863	0.0034
393.147	2.0842	0.003
393.812	2.0821	0.0027
394.477	2.0801	0.0024
395.143	2.078	0.0021
395.808	2.076	0.0019
396.473	2.074	0.0018
397.139	2.0721	0.0017
397.804	2.0702	0.0016
398.469	2.0683	0.0016
399.135	2.0665	0.0016
399.8	2.0648	0.0016
400.465	2.0631	0.0016
401.131	2.0614	0.0016
401.796	2.0598	0.0016
402.461	2.0582	0.0016
403.127	2.0566	0.0017
403.792	2.0551	0.0017
404.457	2.0536	0.0017
405.123	2.0521	0.0017
405.788	2.0507	0.0017
406.453	2.0492	0.0017
407.119	2.0478	0.0017
407.784	2.0464	0.0017
408.449	2.045	0.0017
409.115	2.0437	0.0017
409.78	2.0423	0.0018
410.445	2.041	0.0018
411.111	2.0397	0.0018
411.776	2.0384	0.0018
412.441	2.0371	0.0018
413.107	2.0359	0.0018
413.772	2.0346	0.0018
414.437	2.0334	0.0018
415.103	2.0322	0.0018
415.768	2.031	0.0018
416.433	2.0298	0.0018
417.099	2.0286	0.0019
417.764	2.0274	0.0019
418.429	2.0263	0.0019
419.095	2.0251	0.0019
419.76	2.024	0.0019
420.425	2.0229	0.0019
421.091	2.0217	0.0019
421.756	2.0206	0.0019
422.421	2.0195	0.0019
423.087	2.0185	0.002
423.752	2.0174	0.002
424.417	2.0163	0.002
425.083	2.0153	0.002
425.748	2.0142	0.002
426.413	2.0132	0.002
427.079	2.0122	0.002
427.744	2.0112	0.002
428.409	2.0102	0.002
429.075	2.0092	0.002
429.74	2.0082	0.0021
430.405	2.0072	0.0021
431.071	2.0062	0.0021
431.736	2.0053	0.0021
432.401	2.0043	0.0021
433.067	2.0033	0.0021
433.732	2.0024	0.0021
434.397	2.0015	0.0021
435.063	2.0005	0.0021
435.728	1.9996	0.0022
436.393	1.9987	0.0022
437.059	1.9978	0.0022
437.724	1.9969	0.0022
438.389	1.996	0.0022
439.055	1.9951	0.0022
439.72	1.9942	0.0022
440.385	1.9934	0.0022
441.051	1.9925	0.0022
441.716	1.9916	0.0022
442.381	1.9908	0.0023
443.047	1.9899	0.0023
443.712	1.9891	0.0023
444.377	1.9882	0.0023
445.043	1.9874	0.0023
445.708	1.9866	0.0023
446.373	1.9857	0.0023
447.039	1.9849	0.0023
447.704	1.9841	0.0024
448.369	1.9833	0.0024
449.035	1.9825	0.0024
449.7	1.9817	0.0024
450.365	1.9809	0.0024
451.031	1.9801	0.0024
451.696	1.9793	0.0024
452.361	1.9786	0.0024
453.027	1.9778	0.0024
453.692	1.977	0.0025
454.357	1.9762	0.0025
455.023	1.9755	0.0025
455.688	1.9747	0.0025
456.353	1.974	0.0025
457.019	1.9732	0.0025
457.684	1.9725	0.0025
458.349	1.9718	0.0025
459.015	1.971	0.0025
459.68	1.9703	0.0026
460.345	1.9696	0.0026
461.011	1.9688	0.0026
461.676	1.9681	0.0026
462.341	1.9674	0.0026
463.007	1.9667	0.0026
463.672	1.966	0.0026
464.337	1.9653	0.0026
465.003	1.9646	0.0027
465.668	1.9639	0.0027
466.333	1.9632	0.0027
466.998	1.9625	0.0027
467.664	1.9618	0.0027
468.329	1.9612	0.0027
468.994	1.9605	0.0027
469.66	1.9598	0.0027
470.325	1.9591	0.0028
470.99	1.9585	0.0028
471.656	1.9578	0.0028
472.321	1.9571	0.0028
472.986	1.9565	0.0028
473.652	1.9558	0.0028
474.317	1.9552	0.0028
474.982	1.9545	0.0028
475.648	1.9539	0.0029
476.313	1.9532	0.0029
476.978	1.9526	0.0029
477.644	1.952	0.0029
478.309	1.9513	0.0029
478.974	1.9507	0.0029
479.64	1.9501	0.0029
480.305	1.9495	0.003
480.97	1.9488	0.003
481.636	1.9482	0.003
482.301	1.9476	0.003
482.966	1.947	0.003
483.632	1.9464	0.003
484.297	1.9458	0.003
484.962	1.9452	0.003
485.628	1.9446	0.0031
486.293	1.944	0.0031
486.958	1.9434	0.0031
487.624	1.9428	0.0031
488.289	1.9422	0.0031
488.954	1.9416	0.0031
489.62	1.941	0.0031
490.285	1.9404	0.0032
490.95	1.9398	0.0032
491.616	1.9392	0.0032
492.281	1.9387	0.0032
492.946	1.9381	0.0032
493.612	1.9375	0.0032
494.277	1.937	0.0032
494.942	1.9364	0.0033
495.608	1.9358	0.0033
496.273	1.9353	0.0033
496.938	1.9347	0.0033
497.604	1.9341	0.0033
498.269	1.9336	0.0033
498.934	1.933	0.0033
499.6	1.9325	0.0034
500.265	1.9319	0.0034
500.93	1.9314	0.0034
501.596	1.9308	0.0034
502.261	1.9303	0.0034
502.926	1.9297	0.0034
503.592	1.9292	0.0034
504.257	1.9286	0.0035
504.922	1.9281	0.0035
505.588	1.9276	0.0035
506.253	1.927	0.0035
506.918	1.9265	0.0035
507.584	1.926	0.0035
508.249	1.9254	0.0035
508.914	1.9249	0.0036
509.58	1.9244	0.0036
510.245	1.9239	0.0036
510.91	1.9233	0.0036
511.576	1.9228	0.0036
512.241	1.9223	0.0036
512.906	1.9218	0.0036
513.572	1.9213	0.0037
514.237	1.9208	0.0037
514.902	1.9203	0.0037
515.568	1.9197	0.0037
516.233	1.9192	0.0037
516.898	1.9187	0.0037
517.564	1.9182	0.0038
518.229	1.9177	0.0038
518.894	1.9172	0.0038
519.56	1.9167	0.0038
520.225	1.9162	0.0038
520.89	1.9157	0.0038
521.556	1.9152	0.0038
522.221	1.9147	0.0039
522.886	1.9142	0.0039
523.552	1.9138	0.0039
524.217	1.9133	0.0039
524.882	1.9128	0.0039
525.548	1.9123	0.0039
526.213	1.9118	0.004
526.878	1.9113	0.004
527.544	1.9108	0.004
528.209	1.9104	0.004
528.874	1.9099	0.004
529.54	1.9094	0.004
530.205	1.9089	0.0041
530.87	1.9084	0.0041
531.536	1.908	0.0041
532.201	1.9075	0.0041
532.866	1.907	0.0041
533.532	1.9066	0.0041
534.197	1.9061	0.0042
534.862	1.9056	0.0042
535.528	1.9052	0.0042
536.193	1.9047	0.0042
536.858	1.9042	0.0042
537.524	1.9038	0.0042
538.189	1.9033	0.0043
538.854	1.9028	0.0043
539.52	1.9024	0.0043
540.185	1.9019	0.0043
540.85	1.9015	0.0043
541.516	1.901	0.0043
542.181	1.9006	0.0044
542.846	1.9001	0.0044
543.512	1.8996	0.0044
544.177	1.8992	0.0044
544.842	1.8987	0.0044
545.508	1.8983	0.0044
546.173	1.8979	0.0045
546.838	1.8974	0.0045
547.504	1.897	0.0045
548.169	1.8965	0.0045
548.834	1.8961	0.0045
549.5	1.8956	0.0045
550.165	1.8952	0.0046
550.83	1.8947	0.0046
551.496	1.8943	0.0046
552.161	1.8939	0.0046
552.826	1.8934	0.0046
553.492	1.893	0.0046
554.157	1.8926	0.0047
554.822	1.8921	0.0047
555.488	1.8917	0.0047
556.153	1.8913	0.0047
556.818	1.8908	0.0047
557.484	1.8904	0.0048
558.149	1.89	0.0048
558.814	1.8895	0.0048
559.48	1.8891	0.0048
560.145	1.8887	0.0048
560.81	1.8882	0.0048
561.476	1.8878	0.0049
562.141	1.8874	0.0049
562.806	1.887	0.0049
563.472	1.8866	0.0049
564.137	1.8861	0.0049
564.802	1.8857	0.005
565.468	1.8853	0.005
566.133	1.8849	0.005
566.798	1.8844	0.005
567.464	1.884	0.005
568.129	1.8836	0.0051
568.794	1.8832	0.0051
569.46	1.8828	0.0051
570.125	1.8824	0.0051
570.79	1.882	0.0051
571.456	1.8815	0.0051
572.121	1.8811	0.0052
572.786	1.8807	0.0052
573.452	1.8803	0.0052
574.117	1.8799	0.0052
574.782	1.8795	0.0052
575.448	1.8791	0.0053
576.113	1.8787	0.0053
576.778	1.8783	0.0053
577.444	1.8779	0.0053
578.109	1.8774	0.0053
578.774	1.877	0.0054
579.44	1.8766	0.0054
580.105	1.8762	0.0054
580.77	1.8758	0.0054
581.436	1.8754	0.0054
582.101	1.875	0.0055
582.766	1.8746	0.0055
583.432	1.8742	0.0055
584.097	1.8738	0.0055
584.762	1.8734	0.0055
585.428	1.873	0.0056
586.093	1.8726	0.0056
586.758	1.8722	0.0056
587.424	1.8718	0.0056
588.089	1.8714	0.0056
588.754	1.871	0.0057
589.42	1.8707	0.0057
590.085	1.8703	0.0057
590.75	1.8699	0.0057
591.416	1.8695	0.0057
592.081	1.8691	0.0058
592.746	1.8687	0.0058
593.412	1.8683	0.0058
594.077	1.8679	0.0058
594.742	1.8675	0.0058
595.408	1.8671	0.0059
596.073	1.8667	0.0059
596.738	1.8663	0.0059
597.404	1.866	0.0059
598.069	1.8656	0.0059
598.734	1.8652	0.006
599.4	1.8648	0.006
600.065	1.8644	0.006
600.73	1.864	0.006
601.396	1.8636	0.0061
602.061	1.8633	0.0061
602.726	1.8629	0.0061
603.392	1.8625	0.0061
604.057	1.8621	0.0061
604.722	1.8617	0.0062
605.388	1.8613	0.0062
606.053	1.861	0.0062
606.718	1.8606	0.0062
607.384	1.8602	0.0062
608.049	1.8598	0.0063
608.714	1.8594	0.0063
609.38	1.8591	0.0063
610.045	1.8587	0.0063
610.71	1.8583	0.0064
611.376	1.8579	0.0064
612.041	1.8576	0.0064
612.706	1.8572	0.0064
613.372	1.8568	0.0064
614.037	1.8564	0.0065
614.702	1.8561	0.0065
615.368	1.8557	0.0065
616.033	1.8553	0.0065
616.698	1.8549	0.0066
617.364	1.8546	0.0066
618.029	1.8542	0.0066
618.694	1.8538	0.0066
619.36	1.8534	0.0066
620.025	1.8531	0.0067
620.69	1.8527	0.0067
621.356	1.8523	0.0067
622.021	1.852	0.0067
622.686	1.8516	0.0068
623.352	1.8512	0.0068
624.017	1.8509	0.0068
624.682	1.8505	0.0068
625.348	1.8501	0.0069
626.013	1.8497	0.0069
626.678	1.8494	0.0069
627.344	1.849	0.0069
628.009	1.8486	0.0069
628.674	1.8483	0.007
629.34	1.8479	0.007
630.005	1.8475	0.007
630.67	1.8472	0.007
631.336	1.8468	0.0071
632.001	1.8464	0.0071
632.666	1.8461	0.0071
633.332	1.8457	0.0071
633.997	1.8454	0.0072
634.662	1.845	0.0072
635.328	1.8446	0.0072
635.993	1.8443	0.0072
636.658	1.8439	0.0073
637.324	1.8435	0.0073
637.989	1.8432	0.0073
638.654	1.8428	0.0073
639.32	1.8425	0.0074
639.985	1.8421	0.0074
640.65	1.8417	0.0074
641.316	1.8414	0.0074
641.981	1.841	0.0074
642.646	1.8407	0.0075
643.312	1.8403	0.0075
643.977	1.8399	0.0075
644.642	1.8396	0.0075
645.308	1.8392	0.0076
645.973	1.8389	0.0076
646.638	1.8385	0.0076
647.304	1.8381	0.0076
647.969	1.8378	0.0077
648.634	1.8374	0.0077
649.3	1.8371	0.0077
649.965	1.8367	0.0077
650.63	1.8364	0.0078
651.296	1.836	0.0078
651.961	1.8356	0.0078
652.626	1.8353	0.0078
653.292	1.8349	0.0079
653.957	1.8346	0.0079
654.622	1.8342	0.0079
655.288	1.8339	0.008
655.953	1.8335	0.008
656.618	1.8332	0.008
657.284	1.8328	0.008
657.949	1.8324	0.0081
658.614	1.8321	0.0081
659.28	1.8317	0.0081
659.945	1.8314	0.0081
660.61	1.831	0.0082
661.276	1.8307	0.0082
661.941	1.8303	0.0082
662.606	1.83	0.0082
663.272	1.8296	0.0083
663.937	1.8293	0.0083
664.602	1.8289	0.0083
665.268	1.8286	0.0083
665.933	1.8282	0.0084
666.598	1.8279	0.0084
667.264	1.8275	0.0084
667.929	1.8272	0.0084
668.594	1.8268	0.0085
669.26	1.8265	0.0085
669.925	1.8261	0.0085
670.59	1.8258	0.0086
671.256	1.8254	0.0086
671.921	1.8251	0.0086
672.586	1.8247	0.0086
673.252	1.8244	0.0087
673.917	1.824	0.0087
674.582	1.8237	0.0087
675.248	1.8233	0.0087
675.913	1.823	0.0088
676.578	1.8226	0.0088
677.244	1.8223	0.0088
677.909	1.8219	0.0089
678.574	1.8216	0.0089
679.24	1.8212	0.0089
679.905	1.8209	0.0089
680.57	1.8205	0.009
681.236	1.8202	0.009
681.901	1.8198	0.009
682.566	1.8195	0.0091
683.232	1.8191	0.0091
683.897	1.8188	0.0091
684.562	1.8185	0.0091
685.228	1.8181	0.0092
685.893	1.8178	0.0092
686.558	1.8174	0.0092
687.224	1.8171	0.0093
687.889	1.8167	0.0093
688.554	1.8164	0.0093
689.22	1.816	0.0093
689.885	1.8157	0.0094
690.55	1.8153	0.0094
691.216	1.815	0.0094
691.881	1.8146	0.0095
692.546	1.8143	0.0095
693.212	1.814	0.0095
693.877	1.8136	0.0095
694.542	1.8133	0.0096
695.208	1.8129	0.0096
695.873	1.8126	0.0096
696.538	1.8122	0.0097
697.204	1.8119	0.0097
697.869	1.8115	0.0097
698.534	1.8112	0.0097
699.2	1.8109	0.0098
699.865	1.8105	0.0098
700.53	1.8102	0.0098
701.196	1.8098	0.0099
701.861	1.8095	0.0099
702.526	1.8091	0.0099
703.192	1.8088	0.01
703.857	1.8085	0.01
704.522	1.8081	0.01
705.188	1.8078	0.01
705.853	1.8074	0.0101
706.518	1.8071	0.0101
707.184	1.8067	0.0101
707.849	1.8064	0.0102
708.514	1.8061	0.0102
709.18	1.8057	0.0102
709.845	1.8054	0.0103
710.51	1.805	0.0103
711.176	1.8047	0.0103
711.841	1.8043	0.0103
712.506	1.804	0.0104
713.172	1.8037	0.0104
713.837	1.8033	0.0104
714.502	1.803	0.0105
715.168	1.8026	0.0105
715.833	1.8023	0.0105
716.498	1.8019	0.0106
717.164	1.8016	0.0106
717.829	1.8013	0.0106
718.494	1.8009	0.0107
719.16	1.8006	0.0107
719.825	1.8002	0.0107
720.49	1.7999	0.0108
721.156	1.7996	0.0108
721.821	1.7992	0.0108
722.486	1.7989	0.0109
723.152	1.7985	0.0109
723.817	1.7982	0.0109
724.482	1.7978	0.0109
725.148	1.7975	0.011
725.813	1.7972	0.011
726.478	1.7968	0.011
727.144	1.7965	0.0111
727.809	1.7961	0.0111
728.474	1.7958	0.0111
729.14	1.7955	0.0112
729.805	1.7951	0.0112
730.47	1.7948	0.0112
731.136	1.7944	0.0113
731.801	1.7941	0.0113
732.466	1.7937	0.0113
733.132	1.7934	0.0114
733.797	1.7931	0.0114
734.462	1.7927	0.0114
735.128	1.7924	0.0115
735.793	1.792	0.0115
736.458	1.7917	0.0115
737.124	1.7914	0.0116
737.789	1.791	0.0116
738.454	1.7907	0.0116
739.12	1.7903	0.0117
739.785	1.79	0.0117
740.45	1.7897	0.0117
741.116	1.7893	0.0118
741.781	1.789	0.0118
742.446	1.7886	0.0118
743.112	1.7883	0.0119
743.777	1.788	0.0119
744.442	1.7876	0.0119
745.108	1.7873	0.012
745.773	1.7869	0.012
746.438	1.7866	0.012
747.104	1.7863	0.0121
747.769	1.7859	0.0121
748.434	1.7856	0.0121
749.1	1.7852	0.0122
749.765	1.7849	0.0122
750.43	1.7845	0.0122
751.096	1.7842	0.0123
751.761	1.7839	0.0123
752.426	1.7835	0.0124
753.092	1.7832	0.0124
753.757	1.7828	0.0124
754.422	1.7825	0.0125
755.088	1.7822	0.0125
755.753	1.7818	0.0125
756.418	1.7815	0.0126
757.084	1.7811	0.0126
757.749	1.7808	0.0126
758.414	1.7805	0.0127
759.08	1.7801	0.0127
759.745	1.7798	0.0127
760.41	1.7794	0.0128
761.076	1.7791	0.0128
761.741	1.7788	0.0129
762.406	1.7784	0.0129
763.072	1.7781	0.0129
763.737	1.7777	0.013
764.402	1.7774	0.013
765.068	1.777	0.013
765.733	1.7767	0.0131
766.398	1.7764	0.0131
767.064	1.776	0.0131
767.729	1.7757	0.0132
768.394	1.7753	0.0132
769.06	1.775	0.0133
769.725	1.7747	0.0133
770.39	1.7743	0.0133
771.056	1.774	0.0134
771.721	1.7736	0.0134
772.386	1.7733	0.0134
773.052	1.7729	0.0135
773.717	1.7726	0.0135
774.382	1.7723	0.0135
775.048	1.7719	0.0136
775.713	1.7716	0.0136
776.378	1.7712	0.0137
777.044	1.7709	0.0137
777.709	1.7706	0.0137
778.374	1.7702	0.0138
779.04	1.7699	0.0138
779.705	1.7695	0.0138
780.37	1.7692	0.0139
781.036	1.7688	0.0139
781.701	1.7685	0.014
782.366	1.7682	0.014
783.032	1.7678	0.014
783.697	1.7675	0.0141
784.362	1.7671	0.0141
785.028	1.7668	0.0142
785.693	1.7664	0.0142
786.358	1.7661	0.0142
787.024	1.7658	0.0143
787.689	1.7654	0.0143
788.354	1.7651	0.0143
789.02	1.7647	0.0144
789.685	1.7644	0.0144
790.35	1.764	0.0145
791.016	1.7637	0.0145
791.681	1.7634	0.0145
792.346	1.763	0.0146
793.012	1.7627	0.0146
793.677	1.7623	0.0147
794.342	1.762	0.0147
795.008	1.7616	0.0147
795.673	1.7613	0.0148
796.338	1.761	0.0148
797.004	1.7606	0.0149
797.669	1.7603	0.0149
798.334	1.7599	0.0149
798.999	1.7596	0.015
799.665	1.7592	0.015
800.33	1.7589	0.0151
800.995	1.7585	0.0151
801.661	1.7582	0.0151
802.326	1.7579	0.0152
802.991	1.7575	0.0152
803.657	1.7572	0.0153
804.322	1.7568	0.0153
804.987	1.7565	0.0153
805.653	1.7561	0.0154
806.318	1.7558	0.0154
806.983	1.7554	0.0155
807.649	1.7551	0.0155
808.314	1.7548	0.0156
808.979	1.7544	0.0156
809.645	1.7541	0.0156
810.31	1.7537	0.0157
810.975	1.7534	0.0157
811.641	1.753	0.0158
812.306	1.7527	0.0158
812.971	1.7523	0.0158
813.637	1.752	0.0159
814.302	1.7516	0.0159
814.967	1.7513	0.016
815.633	1.7509	0.016
816.298	1.7506	0.0161
816.963	1.7503	0.0161
817.629	1.7499	0.0161
818.294	1.7496	0.0162
818.959	1.7492	0.0162
819.625	1.7489	0.0163
820.29	1.7485	0.0163
820.955	1.7482	0.0163
821.621	1.7478	0.0164
822.286	1.7475	0.0164
822.951	1.7471	0.0165
823.617	1.7468	0.0165
824.282	1.7464	0.0166
824.947	1.7461	0.0166
825.613	1.7457	0.0167
826.278	1.7454	0.0167
826.943	1.745	0.0167
827.609	1.7447	0.0168
828.274	1.7443	0.0168
828.939	1.744	0.0169
829.605	1.7436	0.0169
830.27	1.7433	0.017
830.935	1.743	0.017
831.601	1.7426	0.017
832.266	1.7423	0.0171
832.931	1.7419	0.0171
833.597	1.7416	0.0172
834.262	1.7412	0.0172
834.927	1.7409	0.0173
835.593	1.7405	0.0173
836.258	1.7402	0.0174
836.923	1.7398	0.0174
837.589	1.7395	0.0174
838.254	1.7391	0.0175
838.919	1.7388	0.0175
839.585	1.7384	0.0176
840.25	1.7381	0.0176
840.915	1.7377	0.0177
841.581	1.7374	0.0177
842.246	1.737	0.0178
842.911	1.7367	0.0178
843.577	1.7363	0.0179
844.242	1.7359	0.0179
844.907	1.7356	0.0179
845.573	1.7352	0.018
846.238	1.7349	0.018
846.903	1.7345	0.0181
847.569	1.7342	0.0181
848.234	1.7338	0.0182
848.899	1.7335	0.0182
849.565	1.7331	0.0183
850.23	1.7328	0.0183
850.895	1.7324	0.0184
851.561	1.7321	0.0184
852.226	1.7317	0.0185
852.891	1.7314	0.0185
853.557	1.731	0.0185
854.222	1.7307	0.0186
854.887	1.7303	0.0186
855.553	1.73	0.0187
856.218	1.7296	0.0187
856.883	1.7292	0.0188
857.549	1.7289	0.0188
858.214	1.7285	0.0189
858.879	1.7282	0.0189
859.545	1.7278	0.019
860.21	1.7275	0.019
860.875	1.7271	0.0191
861.541	1.7268	0.0191
862.206	1.7264	0.0192
862.871	1.7261	0.0192
863.537	1.7257	0.0193
864.202	1.7253	0.0193
864.867	1.725	0.0194
865.533	1.7246	0.0194
866.198	1.7243	0.0195
866.863	1.7239	0.0195
867.529	1.7236	0.0195
868.194	1.7232	0.0196
868.859	1.7229	0.0196
869.525	1.7225	0.0197
870.19	1.7221	0.0197
870.855	1.7218	0.0198
871.521	1.7214	0.0198
872.186	1.7211	0.0199
872.851	1.7207	0.0199
873.517	1.7204	0.02
874.182	1.72	0.02
874.847	1.7196	0.0201
875.513	1.7193	0.0201
876.178	1.7189	0.0202
876.843	1.7186	0.0202
877.509	1.7182	0.0203
878.174	1.7178	0.0203
878.839	1.7175	0.0204
879.505	1.7171	0.0204
880.17	1.7168	0.0205
880.835	1.7164	0.0205
881.501	1.7161	0.0206
882.166	1.7157	0.0206
882.831	1.7153	0.0207
883.497	1.715	0.0207
884.162	1.7146	0.0208
884.827	1.7143	0.0208
885.493	1.7139	0.0209
886.158	1.7135	0.0209
886.823	1.7132	0.021
887.489	1.7128	0.0211
888.154	1.7124	0.0211
888.819	1.7121	0.0212
889.485	1.7117	0.0212
890.15	1.7114	0.0213
890.815	1.711	0.0213
891.481	1.7106	0.0214
892.146	1.7103	0.0214
892.811	1.7099	0.0215
893.477	1.7096	0.0215
894.142	1.7092	0.0216
894.807	1.7088	0.0216
895.473	1.7085	0.0217
896.138	1.7081	0.0217
896.803	1.7077	0.0218
897.469	1.7074	0.0218
898.134	1.707	0.0219
898.799	1.7066	0.0219
899.465	1.7063	0.022
900.13	1.7059	0.022
900.795	1.7056	0.0221
901.461	1.7052	0.0222
902.126	1.7048	0.0222
902.791	1.7045	0.0223
903.457	1.7041	0.0223
904.122	1.7037	0.0224
904.787	1.7034	0.0224
905.453	1.703	0.0225
906.118	1.7026	0.0225
906.783	1.7023	0.0226
907.449	1.7019	0.0226
908.114	1.7015	0.0227
908.779	1.7012	0.0227
909.445	1.7008	0.0228
910.11	1.7004	0.0229
910.775	1.7001	0.0229
911.441	1.6997	0.023
912.106	1.6993	0.023
912.771	1.699	0.0231
913.437	1.6986	0.0231
914.102	1.6982	0.0232
914.767	1.6979	0.0232
915.433	1.6975	0.0233
916.098	1.6971	0.0234
916.763	1.6968	0.0234
917.429	1.6964	0.0235
918.094	1.696	0.0235
918.759	1.6956	0.0236
919.425	1.6953	0.0236
920.09	1.6949	0.0237
920.755	1.6945	0.0237
921.421	1.6942	0.0238
922.086	1.6938	0.0239
922.751	1.6934	0.0239
923.417	1.6931	0.024
924.082	1.6927	0.024
924.747	1.6923	0.0241
925.413	1.6919	0.0241
926.078	1.6916	0.0242
926.743	1.6912	0.0243
927.409	1.6908	0.0243
928.074	1.6905	0.0244
928.739	1.6901	0.0244
929.405	1.6897	0.0245
930.07	1.6893	0.0245
930.735	1.689	0.0246
931.401	1.6886	0.0247
932.066	1.6882	0.0247
932.731	1.6878	0.0248
933.397	1.6875	0.0248
934.062	1.6871	0.0249
934.727	1.6867	0.0249
935.393	1.6864	0.025
936.058	1.686	0.0251
936.723	1.6856	0.0251
937.389	1.6852	0.0252
938.054	1.6849	0.0252
938.719	1.6845	0.0253
939.385	1.6841	0.0254
940.05	1.6837	0.0254
940.715	1.6834	0.0255
941.381	1.683	0.0255
942.046	1.6826	0.0256
942.711	1.6822	0.0257
943.377	1.6818	0.0257
944.042	1.6815	0.0258
944.707	1.6811	0.0258
945.373	1.6807	0.0259
946.038	1.6803	0.026
946.703	1.68	0.026
947.369	1.6796	0.0261
948.034	1.6792	0.0261
948.699	1.6788	0.0262
949.365	1.6784	0.0263
950.03	1.6781	0.0263
950.695	1.6777	0.0264
951.361	1.6773	0.0264
952.026	1.6769	0.0265
952.691	1.6766	0.0266
953.357	1.6762	0.0266
954.022	1.6758	0.0267
954.687	1.6754	0.0267
955.353	1.675	0.0268
956.018	1.6747	0.0269
956.683	1.6743	0.0269
957.349	1.6739	0.027
958.014	1.6735	0.0271
958.679	1.6731	0.0271
959.345	1.6727	0.0272
960.01	1.6724	0.0272
960.675	1.672	0.0273
961.341	1.6716	0.0274
962.006	1.6712	0.0274
962.671	1.6708	0.0275
963.337	1.6705	0.0276
964.002	1.6701	0.0276
964.667	1.6697	0.0277
965.333	1.6693	0.0277
965.998	1.6689	0.0278
966.663	1.6685	0.0279
967.329	1.6682	0.0279
967.994	1.6678	0.028
968.659	1.6674	0.0281
969.325	1.667	0.0281
969.99	1.6666	0.0282
970.655	1.6662	0.0283
971.321	1.6658	0.0283
971.986	1.6655	0.0284
972.651	1.6651	0.0284
973.317	1.6647	0.0285
973.982	1.6643	0.0286
974.647	1.6639	0.0286
975.313	1.6635	0.0287
975.978	1.6631	0.0288
976.643	1.6627	0.0288
977.309	1.6624	0.0289
977.974	1.662	0.029
978.639	1.6616	0.029
979.305	1.6612	0.0291
979.97	1.6608	0.0292
980.635	1.6604	0.0292
981.301	1.66	0.0293
981.966	1.6596	0.0294
982.631	1.6593	0.0294
983.297	1.6589	0.0295
983.962	1.6585	0.0296
984.627	1.6581	0.0296
985.293	1.6577	0.0297
985.958	1.6573	0.0298
986.623	1.6569	0.0298
987.289	1.6565	0.0299
987.954	1.6561	0.03
988.619	1.6557	0.03
989.285	1.6553	0.0301
989.95	1.655	0.0302
990.615	1.6546	0.0302
991.281	1.6542	0.0303
991.946	1.6538	0.0304
992.611	1.6534	0.0304
993.277	1.653	0.0305
993.942	1.6526	0.0306
994.607	1.6522	0.0306
995.273	1.6518	0.0307
995.938	1.6514	0.0308
996.603	1.651	0.0308
997.269	1.6506	0.0309
997.934	1.6502	0.031
998.599	1.6498	0.031
999.265	1.6494	0.0311
999.93	1.649	0.0312
1000.595	1.6487	0.0313
1001.261	1.6483	0.0313
1001.926	1.6479	0.0314
1002.591	1.6475	0.0315
1003.257	1.6471	0.0315
1003.922	1.6467	0.0316
1004.587	1.6463	0.0317
1005.253	1.6459	0.0317
1005.918	1.6455	0.0318
1006.583	1.6451	0.0319
1007.249	1.6447	0.032
1007.914	1.6443	0.032
1008.579	1.6439	0.0321
1009.245	1.6435	0.0322
1009.91	1.6431	0.0322
1010.575	1.6427	0.0323
1011.241	1.6423	0.0324
1011.906	1.6419	0.0325
1012.571	1.6415	0.0325
1013.237	1.6411	0.0326
1013.902	1.6407	0.0327
1014.567	1.6403	0.0327
1015.233	1.6399	0.0328
1015.898	1.6395	0.0329
1016.563	1.6391	0.033
1017.229	1.6387	0.033
1017.894	1.6383	0.0331
1018.559	1.6379	0.0332
1019.225	1.6375	0.0332
1019.89	1.6371	0.0333
1020.555	1.6367	0.0334
1021.221	1.6363	0.0335
1021.886	1.6359	0.0335
1022.551	1.6355	0.0336
1023.217	1.6351	0.0337
1023.882	1.6347	0.0338
1024.547	1.6342	0.0338
1025.213	1.6338	0.0339
1025.878	1.6334	0.034
1026.543	1.633	0.0341
1027.209	1.6326	0.0341
1027.874	1.6322	0.0342
1028.539	1.6318	0.0343
1029.205	1.6314	0.0343
1029.87	1.631	0.0344
1030.535	1.6306	0.0345
1031.201	1.6302	0.0346
1031.866	1.6298	0.0346
1032.531	1.6294	0.0347
1033.197	1.629	0.0348
1033.862	1.6286	0.0349
1034.527	1.6281	0.0349
1035.193	1.6277	0.035
1035.858	1.6273	0.0351
1036.523	1.6269	0.0352
1037.189	1.6265	0.0353
1037.854	1.6261	0.0353
1038.519	1.6257	0.0354
1039.185	1.6253	0.0355
1039.85	1.6249	0.0356
1040.515	1.6245	0.0356
1041.181	1.6241	0.0357
1041.846	1.6236	0.0358
1042.511	1.6232	0.0359
1043.177	1.6228	0.0359
1043.842	1.6224	0.036
1044.507	1.622	0.0361
1045.173	1.6216	0.0362
1045.838	1.6212	0.0363
1046.503	1.6208	0.0363
1047.169	1.6203	0.0364
1047.834	1.6199	0.0365
1048.499	1.6195	0.0366
1049.165	1.6191	0.0366
1049.83	1.6187	0.0367
1050.495	1.6183	0.0368
1051.161	1.6179	0.0369
1051.826	1.6174	0.037
1052.491	1.617	0.037
1053.157	1.6166	0.0371
1053.822	1.6162	0.0372
1054.487	1.6158	0.0373
1055.153	1.6154	0.0374
1055.818	1.6149	0.0374
1056.483	1.6145	0.0375
1057.149	1.6141	0.0376
1057.814	1.6137	0.0377
1058.479	1.6133	0.0378
1059.145	1.6129	0.0378
1059.81	1.6124	0.0379
1060.475	1.612	0.038
1061.141	1.6116	0.0381
1061.806	1.6112	0.0382
1062.471	1.6108	0.0382
1063.137	1.6103	0.0383
1063.802	1.6099	0.0384
1064.467	1.6095	0.0385
1065.133	1.6091	0.0386
1065.798	1.6087	0.0386
1066.463	1.6082	0.0387
1067.129	1.6078	0.0388
1067.794	1.6074	0.0389
1068.459	1.607	0.039
1069.125	1.6066	0.0391
1069.79	1.6061	0.0391
1070.455	1.6057	0.0392
1071.121	1.6053	0.0393
1071.786	1.6049	0.0394
1072.451	1.6044	0.0395
1073.117	1.604	0.0396
1073.782	1.6036	0.0396
1074.447	1.6032	0.0397
1075.113	1.6027	0.0398
1075.778	1.6023	0.0399
1076.443	1.6019	0.04
1077.109	1.6015	0.0401
1077.774	1.601	0.0401
1078.439	1.6006	0.0402
1079.105	1.6002	0.0403
1079.77	1.5998	0.0404
1080.435	1.5993	0.0405
1081.101	1.5989	0.0406
1081.766	1.5985	0.0406
1082.431	1.5981	0.0407
1083.097	1.5976	0.0408
1083.762	1.5972	0.0409
1084.427	1.5968	0.041
1085.093	1.5963	0.0411
1085.758	1.5959	0.0412
1086.423	1.5955	0.0412
1087.089	1.5951	0.0413
1087.754	1.5946	0.0414
1088.419	1.5942	0.0415
1089.085	1.5938	0.0416
1089.75	1.5933	0.0417
1090.415	1.5929	0.0418
1091.081	1.5925	0.0419
1091.746	1.592	0.0419
1092.411	1.5916	0.042
1093.077	1.5912	0.0421
1093.742	1.5907	0.0422
1094.407	1.5903	0.0423
1095.073	1.5899	0.0424
1095.738	1.5894	0.0425
1096.403	1.589	0.0426
1097.069	1.5886	0.0426
1097.734	1.5881	0.0427
1098.399	1.5877	0.0428
1099.065	1.5873	0.0429
1099.73	1.5868	0.043
1100.395	1.5864	0.0431
1101.061	1.586	0.0432
1101.726	1.5855	0.0433
1102.391	1.5851	0.0434
1103.057	1.5847	0.0434
1103.722	1.5842	0.0435
1104.387	1.5838	0.0436
1105.053	1.5834	0.0437
1105.718	1.5829	0.0438
1106.383	1.5825	0.0439
1107.049	1.582	0.044
1107.714	1.5816	0.0441
1108.379	1.5812	0.0442
1109.045	1.5807	0.0443
1109.71	1.5803	0.0444
1110.375	1.5798	0.0444
1111.041	1.5794	0.0445
1111.706	1.579	0.0446
1112.371	1.5785	0.0447
1113.037	1.5781	0.0448
1113.702	1.5776	0.0449
1114.367	1.5772	0.045
1115.033	1.5768	0.0451
1115.698	1.5763	0.0452
1116.363	1.5759	0.0453
1117.029	1.5754	0.0454
1117.694	1.575	0.0455
1118.359	1.5745	0.0456
1119.025	1.5741	0.0456
1119.69	1.5737	0.0457
1120.355	1.5732	0.0458
1121.021	1.5728	0.0459
1121.686	1.5723	0.046
1122.351	1.5719	0.0461
1123.017	1.5714	0.0462
1123.682	1.571	0.0463
1124.347	1.5705	0.0464
1125.013	1.5701	0.0465
1125.678	1.5696	0.0466
1126.343	1.5692	0.0467
1127.009	1.5688	0.0468
1127.674	1.5683	0.0469
1128.339	1.5679	0.047
1129.005	1.5674	0.0471
1129.67	1.567	0.0472
1130.335	1.5665	0.0473
1131.001	1.5661	0.0474
1131.666	1.5656	0.0474
1132.331	1.5652	0.0475
1132.996	1.5647	0.0476
1133.662	1.5643	0.0477
1134.327	1.5638	0.0478
1134.992	1.5634	0.0479
1135.658	1.5629	0.048
1136.323	1.5625	0.0481
1136.988	1.562	0.0482
1137.654	1.5616	0.0483
1138.319	1.5611	0.0484
1138.984	1.5607	0.0485
1139.65	1.5602	0.0486
1140.315	1.5598	0.0487
1140.98	1.5593	0.0488
1141.646	1.5588	0.0489
1142.311	1.5584	0.049
1142.976	1.5579	0.0491
1143.642	1.5575	0.0492
1144.307	1.557	0.0493
1144.972	1.5566	0.0494
1145.638	1.5561	0.0495
1146.303	1.5557	0.0496
1146.968	1.5552	0.0497
1147.634	1.5547	0.0498
1148.299	1.5543	0.0499
1148.964	1.5538	0.05
1149.63	1.5534	0.0501
1150.295	1.5529	0.0502
1150.96	1.5525	0.0503
1151.626	1.552	0.0504
1152.291	1.5515	0.0505
1152.956	1.5511	0.0506
1153.622	1.5506	0.0507
1154.287	1.5502	0.0508
1154.952	1.5497	0.0509
1155.618	1.5492	0.051
1156.283	1.5488	0.0511
1156.948	1.5483	0.0512
1157.614	1.5479	0.0513
1158.279	1.5474	0.0514
1158.944	1.5469	0.0515
1159.61	1.5465	0.0516
1160.275	1.546	0.0517
1160.94	1.5455	0.0518
1161.606	1.5451	0.052
1162.271	1.5446	0.0521
1162.936	1.5442	0.0522
1163.602	1.5437	0.0523
1164.267	1.5432	0.0524
1164.932	1.5428	0.0525
1165.598	1.5423	0.0526
1166.263	1.5418	0.0527
1166.928	1.5414	0.0528
1167.594	1.5409	0.0529
1168.259	1.5404	0.053
1168.924	1.54	0.0531
1169.59	1.5395	0.0532
1170.255	1.539	0.0533
1170.92	1.5386	0.0534
1171.586	1.5381	0.0535
1172.251	1.5376	0.0536
1172.916	1.5372	0.0537
1173.582	1.5367	0.0538
1174.247	1.5362	0.054
1174.912	1.5358	0.0541
1175.578	1.5353	0.0542
1176.243	1.5348	0.0543
1176.908	1.5343	0.0544
1177.574	1.5339	0.0545
1178.239	1.5334	0.0546
1178.904	1.5329	0.0547
1179.57	1.5325	0.0548
1180.235	1.532	0.0549
1180.9	1.5315	0.055
1181.566	1.531	0.0551
1182.231	1.5306	0.0553
1182.896	1.5301	0.0554
1183.562	1.5296	0.0555
1184.227	1.5291	0.0556
1184.892	1.5287	0.0557
1185.558	1.5282	0.0558
1186.223	1.5277	0.0559
1186.888	1.5272	0.056
1187.554	1.5268	0.0561
1188.219	1.5263	0.0562
1188.884	1.5258	0.0564
1189.55	1.5253	0.0565
1190.215	1.5249	0.0566
1190.88	1.5244	0.0567
1191.546	1.5239	0.0568
1192.211	1.5234	0.0569
1192.876	1.523	0.057
1193.542	1.5225	0.0571
1194.207	1.522	0.0572
1194.872	1.5215	0.0574
1195.538	1.521	0.0575
1196.203	1.5206	0.0576
1196.868	1.5201	0.0577
1197.534	1.5196	0.0578
1198.199	1.5191	0.0579
1198.864	1.5186	0.058
1199.53	1.5181	0.0582
1200.195	1.5177	0.0583
1200.86	1.5172	0.0584
1201.526	1.5167	0.0585
1202.191	1.5162	0.0586
1202.856	1.5157	0.0587
1203.522	1.5152	0.0588
1204.187	1.5148	0.059
1204.852	1.5143	0.0591
1205.518	1.5138	0.0592
1206.183	1.5133	0.0593
1206.848	1.5128	0.0594
1207.514	1.5123	0.0595
1208.179	1.5119	0.0597
1208.844	1.5114	0.0598
1209.51	1.5109	0.0599
1210.175	1.5104	0.06
1210.84	1.5099	0.0601
1211.506	1.5094	0.0602
1212.171	1.5089	0.0604
1212.836	1.5084	0.0605
1213.502	1.508	0.0606
1214.167	1.5075	0.0607
1214.832	1.507	0.0608
1215.498	1.5065	0.0609
1216.163	1.506	0.0611
1216.828	1.5055	0.0612
1217.494	1.505	0.0613
1218.159	1.5045	0.0614
1218.824	1.504	0.0615
1219.49	1.5035	0.0617
1220.155	1.503	0.0618
1220.82	1.5025	0.0619
1221.486	1.5021	0.062
1222.151	1.5016	0.0621
1222.816	1.5011	0.0623
1223.482	1.5006	0.0624
1224.147	1.5001	0.0625
1224.812	1.4996	0.0626
1225.478	1.4991	0.0628
1226.143	1.4986	0.0629
1226.808	1.4981	0.063
1227.474	1.4976	0.0631
1228.139	1.4971	0.0632
1228.804	1.4966	0.0634
1229.47	1.4961	0.0635
1230.135	1.4956	0.0636
1230.8	1.4951	0.0637
1231.466	1.4946	0.0639
1232.131	1.4941	0.064
1232.796	1.4936	0.0641
1233.462	1.4931	0.0642
1234.127	1.4926	0.0643
1234.792	1.4921	0.0645
1235.458	1.4916	0.0646
1236.123	1.4911	0.0647
1236.788	1.4906	0.0648
1237.454	1.4901	0.065
1238.119	1.4896	0.0651
1238.784	1.4891	0.0652
1239.45	1.4886	0.0653
1240.115	1.4881	0.0655
1240.78	1.4876	0.0656
1241.446	1.4871	0.0657
1242.111	1.4866	0.0659
1242.776	1.4861	0.066
1243.442	1.4856	0.0661
1244.107	1.4851	0.0662
1244.772	1.4846	0.0664
1245.438	1.4841	0.0665
1246.103	1.4836	0.0666
1246.768	1.4831	0.0667
1247.434	1.4825	0.0669
1248.099	1.482	0.067
1248.764	1.4815	0.0671
1249.43	1.481	0.0673
1250.095	1.4805	0.0674
1250.76	1.48	0.0675
1251.426	1.4795	0.0677
1252.091	1.479	0.0678
1252.756	1.4785	0.0679
1253.422	1.478	0.068
1254.087	1.4775	0.0682
1254.752	1.4769	0.0683
1255.418	1.4764	0.0684
1256.083	1.4759	0.0686
1256.748	1.4754	0.0687
1257.414	1.4749	0.0688
1258.079	1.4744	0.069
1258.744	1.4739	0.0691
1259.41	1.4734	0.0692
1260.075	1.4728	0.0694
1260.74	1.4723	0.0695
1261.406	1.4718	0.0696
1262.071	1.4713	0.0698
1262.736	1.4708	0.0699
1263.402	1.4703	0.07
1264.067	1.4698	0.0702
1264.732	1.4692	0.0703
1265.398	1.4687	0.0704
1266.063	1.4682	0.0706
1266.728	1.4677	0.0707
1267.394	1.4672	0.0708
1268.059	1.4667	0.071
1268.724	1.4661	0.0711
1269.39	1.4656	0.0712
1270.055	1.4651	0.0714
1270.72	1.4646	0.0715
1271.386	1.4641	0.0716
1272.051	1.4635	0.0718
1272.716	1.463	0.0719
1273.382	1.4625	0.0721
1274.047	1.462	0.0722
1274.712	1.4614	0.0723
1275.378	1.4609	0.0725
1276.043	1.4604	0.0726
1276.708	1.4599	0.0727
1277.374	1.4594	0.0729
1278.039	1.4588	0.073
1278.704	1.4583	0.0732
1279.37	1.4578	0.0733
1280.035	1.4573	0.0734
1280.7	1.4567	0.0736
1281.366	1.4562	0.0737
1282.031	1.4557	0.0739
1282.696	1.4552	0.074
1283.362	1.4546	0.0741
1284.027	1.4541	0.0743
1284.692	1.4536	0.0744
1285.358	1.453	0.0746
1286.023	1.4525	0.0747
1286.688	1.452	0.0748
1287.354	1.4515	0.075
1288.019	1.4509	0.0751
1288.684	1.4504	0.0753
1289.35	1.4499	0.0754
1290.015	1.4493	0.0756
1290.68	1.4488	0.0757
1291.346	1.4483	0.0758
1292.011	1.4477	0.076
1292.676	1.4472	0.0761
1293.342	1.4467	0.0763
1294.007	1.4461	0.0764
1294.672	1.4456	0.0766
1295.338	1.4451	0.0767
1296.003	1.4445	0.0768
1296.668	1.444	0.077
1297.334	1.4435	0.0771
1297.999	1.4429	0.0773
1298.664	1.4424	0.0774
1299.33	1.4419	0.0776
1299.995	1.4413	0.0777
1300.66	1.4408	0.0779
1301.326	1.4403	0.078
1301.991	1.4397	0.0782
1302.656	1.4392	0.0783
1303.322	1.4386	0.0785
1303.987	1.4381	0.0786
1304.652	1.4376	0.0788
1305.318	1.437	0.0789
1305.983	1.4365	0.0791
1306.648	1.4359	0.0792
1307.314	1.4354	0.0794
1307.979	1.4349	0.0795
1308.644	1.4343	0.0796
1309.31	1.4338	0.0798
1309.975	1.4332	0.0799
1310.64	1.4327	0.0801
1311.306	1.4322	0.0803
1311.971	1.4316	0.0804
1312.636	1.4311	0.0806
1313.302	1.4305	0.0807
1313.967	1.43	0.0809
1314.632	1.4294	0.081
1315.298	1.4289	0.0812
1315.963	1.4283	0.0813
1316.628	1.4278	0.0815
1317.294	1.4272	0.0816
1317.959	1.4267	0.0818
1318.624	1.4261	0.0819
1319.29	1.4256	0.0821
1319.955	1.4251	0.0822
1320.62	1.4245	0.0824
1321.286	1.424	0.0825
1321.951	1.4234	0.0827
1322.616	1.4229	0.0829
1323.282	1.4223	0.083
1323.947	1.4218	0.0832
1324.612	1.4212	0.0833
1325.278	1.4207	0.0835
1325.943	1.4201	0.0836
1326.608	1.4195	0.0838
1327.274	1.419	0.0839
1327.939	1.4184	0.0841
1328.604	1.4179	0.0843
1329.27	1.4173	0.0844
1329.935	1.4168	0.0846
1330.6	1.4162	0.0847
1331.266	1.4157	0.0849
1331.931	1.4151	0.0851
1332.596	1.4146	0.0852
1333.262	1.414	0.0854
1333.927	1.4134	0.0855
1334.592	1.4129	0.0857
1335.258	1.4123	0.0858
1335.923	1.4118	0.086
1336.588	1.4112	0.0862
1337.254	1.4107	0.0863
1337.919	1.4101	0.0865
1338.584	1.4095	0.0867
1339.25	1.409	0.0868
1339.915	1.4084	0.087
1340.58	1.4079	0.0871
1341.246	1.4073	0.0873
1341.911	1.4067	0.0875
1342.576	1.4062	0.0876
1343.242	1.4056	0.0878
1343.907	1.405	0.088
1344.572	1.4045	0.0881
1345.238	1.4039	0.0883
1345.903	1.4034	0.0884
1346.568	1.4028	0.0886
1347.234	1.4022	0.0888
1347.899	1.4017	0.0889
1348.564	1.4011	0.0891
1349.23	1.4005	0.0893
1349.895	1.4	0.0894
1350.56	1.3994	0.0896
1351.226	1.3988	0.0898
1351.891	1.3983	0.0899
1352.556	1.3977	0.0901
1353.222	1.3971	0.0903
1353.887	1.3965	0.0904
1354.552	1.396	0.0906
1355.218	1.3954	0.0908
1355.883	1.3948	0.091
1356.548	1.3943	0.0911
1357.214	1.3937	0.0913
1357.879	1.3931	0.0915
1358.544	1.3926	0.0916
1359.21	1.392	0.0918
1359.875	1.3914	0.092
1360.54	1.3908	0.0921
1361.206	1.3903	0.0923
1361.871	1.3897	0.0925
1362.536	1.3891	0.0927
1363.202	1.3885	0.0928
1363.867	1.388	0.093
1364.532	1.3874	0.0932
1365.198	1.3868	0.0933
1365.863	1.3862	0.0935
1366.528	1.3857	0.0937
1367.194	1.3851	0.0939
1367.859	1.3845	0.094
1368.524	1.3839	0.0942
1369.19	1.3833	0.0944
1369.855	1.3828	0.0946
1370.52	1.3822	0.0947
1371.186	1.3816	0.0949
1371.851	1.381	0.0951
1372.516	1.3804	0.0953
1373.182	1.3799	0.0954
1373.847	1.3793	0.0956
1374.512	1.3787	0.0958
1375.178	1.3781	0.096
1375.843	1.3775	0.0962
1376.508	1.3769	0.0963
1377.174	1.3764	0.0965
1377.839	1.3758	0.0967
1378.504	1.3752	0.0969
1379.17	1.3746	0.0971
1379.835	1.374	0.0972
1380.5	1.3734	0.0974
1381.166	1.3728	0.0976
1381.831	1.3723	0.0978
1382.496	1.3717	0.098
1383.162	1.3711	0.0981
1383.827	1.3705	0.0983
1384.492	1.3699	0.0985
1385.158	1.3693	0.0987
1385.823	1.3687	0.0989
1386.488	1.3681	0.099
1387.154	1.3675	0.0992
1387.819	1.367	0.0994
1388.484	1.3664	0.0996
1389.15	1.3658	0.0998
1389.815	1.3652	0.1
1390.48	1.3646	0.1001
1391.146	1.364	0.1003
1391.811	1.3634	0.1005
1392.476	1.3628	0.1007
1393.142	1.3622	0.1009
1393.807	1.3616	0.1011
1394.472	1.361	0.1013
1395.138	1.3604	0.1015
1395.803	1.3598	0.1016
1396.468	1.3592	0.1018
1397.134	1.3586	0.102
1397.799	1.358	0.1022
1398.464	1.3574	0.1024
1399.13	1.3568	0.1026
1399.795	1.3562	0.1028
1400.46	1.3556	0.103
1401.126	1.355	0.1032
1401.791	1.3544	0.1033
1402.456	1.3538	0.1035
1403.122	1.3532	0.1037
1403.787	1.3526	0.1039
1404.452	1.352	0.1041
1405.118	1.3514	0.1043
1405.783	1.3508	0.1045
1406.448	1.3502	0.1047
1407.114	1.3496	0.1049
1407.779	1.349	0.1051
1408.444	1.3484	0.1053
1409.11	1.3478	0.1055
1409.775	1.3472	0.1057
1410.44	1.3466	0.1058
1411.106	1.346	0.106
1411.771	1.3454	0.1062
1412.436	1.3448	0.1064
1413.102	1.3442	0.1066
1413.767	1.3436	0.1068
1414.432	1.3429	0.107
1415.098	1.3423	0.1072
1415.763	1.3417	0.1074
1416.428	1.3411	0.1076
1417.094	1.3405	0.1078
1417.759	1.3399	0.108
1418.424	1.3393	0.1082
1419.09	1.3387	0.1084
1419.755	1.3381	0.1086
1420.42	1.3374	0.1088
1421.086	1.3368	0.109
1421.751	1.3362	0.1092
1422.416	1.3356	0.1094
1423.082	1.335	0.1096
1423.747	1.3344	0.1098
1424.412	1.3338	0.11
1425.078	1.3331	0.1102
1425.743	1.3325	0.1104
1426.408	1.3319	0.1106
1427.074	1.3313	0.1108
1427.739	1.3307	0.111
1428.404	1.33	0.1112
1429.07	1.3294	0.1114
1429.735	1.3288	0.1116
1430.4	1.3282	0.1119
1431.066	1.3276	0.1121
1431.731	1.3269	0.1123
1432.396	1.3263	0.1125
1433.062	1.3257	0.1127
1433.727	1.3251	0.1129
1434.392	1.3245	0.1131
1435.058	1.3238	0.1133
1435.723	1.3232	0.1135
1436.388	1.3226	0.1137
1437.054	1.322	0.1139
1437.719	1.3213	0.1141
1438.384	1.3207	0.1143
1439.05	1.3201	0.1146
1439.715	1.3195	0.1148
1440.38	1.3188	0.115
1441.046	1.3182	0.1152
1441.711	1.3176	0.1154
1442.376	1.3169	0.1156
1443.042	1.3163	0.1158
1443.707	1.3157	0.116
1444.372	1.3151	0.1163
1445.038	1.3144	0.1165
1445.703	1.3138	0.1167
1446.368	1.3132	0.1169
1447.034	1.3125	0.1171
1447.699	1.3119	0.1173
1448.364	1.3113	0.1175
1449.03	1.3106	0.1178
1449.695	1.31	0.118
1450.36	1.3094	0.1182
1451.026	1.3087	0.1184
1451.691	1.3081	0.1186
1452.356	1.3075	0.1188
1453.022	1.3068	0.1191
1453.687	1.3062	0.1193
1454.352	1.3056	0.1195
1455.018	1.3049	0.1197
1455.683	1.3043	0.1199
1456.348	1.3036	0.1202
1457.014	1.303	0.1204
1457.679	1.3024	0.1206
1458.344	1.3017	0.1208
1459.01	1.3011	0.121
1459.675	1.3004	0.1213
1460.34	1.2998	0.1215
1461.006	1.2992	0.1217
1461.671	1.2985	0.1219
1462.336	1.2979	0.1222
1463.002	1.2972	0.1224
1463.667	1.2966	0.1226
1464.332	1.2959	0.1228
1464.997	1.2953	0.1231
1465.663	1.2947	0.1233
1466.328	1.294	0.1235
1466.993	1.2934	0.1237
1467.659	1.2927	0.124
1468.324	1.2921	0.1242
1468.989	1.2914	0.1244
1469.655	1.2908	0.1247
1470.32	1.2901	0.1249
1470.985	1.2895	0.1251
1471.651	1.2888	0.1253
1472.316	1.2882	0.1256
1472.981	1.2875	0.1258
1473.647	1.2869	0.126
1474.312	1.2862	0.1263
1474.977	1.2856	0.1265
1475.643	1.2849	0.1267
1476.308	1.2843	0.127
1476.973	1.2836	0.1272
1477.639	1.283	0.1274
1478.304	1.2823	0.1277
1478.969	1.2816	0.1279
1479.635	1.281	0.1281
1480.3	1.2803	0.1284
1480.965	1.2797	0.1286
1481.631	1.279	0.1288
1482.296	1.2784	0.1291
1482.961	1.2777	0.1293
1483.627	1.277	0.1296
1484.292	1.2764	0.1298
1484.957	1.2757	0.13
1485.623	1.2751	0.1303
1486.288	1.2744	0.1305
1486.953	1.2737	0.1308
1487.619	1.2731	0.131
1488.284	1.2724	0.1312
1488.949	1.2718	0.1315
1489.615	1.2711	0.1317
1490.28	1.2704	0.132
1490.945	1.2698	0.1322
1491.611	1.2691	0.1324
1492.276	1.2684	0.1327
1492.941	1.2678	0.1329
1493.607	1.2671	0.1332
1494.272	1.2664	0.1334
1494.937	1.2658	0.1337
1495.603	1.2651	0.1339
1496.268	1.2644	0.1342
1496.933	1.2638	0.1344
1497.599	1.2631	0.1347
1498.264	1.2624	0.1349
1498.929	1.2618	0.1351
1499.595	1.2611	0.1354
1500.26	1.2604	0.1356
1500.925	1.2597	0.1359
1501.591	1.2591	0.1361
1502.256	1.2584	0.1364
1502.921	1.2577	0.1366
1503.587	1.257	0.1369
1504.252	1.2564	0.1371
1504.917	1.2557	0.1374
1505.583	1.255	0.1377
1506.248	1.2543	0.1379
1506.913	1.2537	0.1382
1507.579	1.253	0.1384
1508.244	1.2523	0.1387
1508.909	1.2516	0.1389
1509.575	1.251	0.1392
1510.24	1.2503	0.1394
1510.905	1.2496	0.1397
1511.571	1.2489	0.14
1512.236	1.2482	0.1402
1512.901	1.2476	0.1405
1513.567	1.2469	0.1407
1514.232	1.2462	0.141
1514.897	1.2455	0.1412
1515.563	1.2448	0.1415
1516.228	1.2442	0.1418
1516.893	1.2435	0.142
1517.559	1.2428	0.1423
1518.224	1.2421	0.1426
1518.889	1.2414	0.1428
1519.555	1.2407	0.1431
1520.22	1.24	0.1433
1520.885	1.2394	0.1436
1521.551	1.2387	0.1439
1522.216	1.238	0.1441
1522.881	1.2373	0.1444
1523.547	1.2366	0.1447
1524.212	1.2359	0.1449
1524.877	1.2352	0.1452
1525.543	1.2345	0.1455
1526.208	1.2338	0.1457
1526.873	1.2331	0.146
1527.539	1.2325	0.1463
1528.204	1.2318	0.1465
1528.869	1.2311	0.1468
1529.535	1.2304	0.1471
1530.2	1.2297	0.1474
1530.865	1.229	0.1476
1531.531	1.2283	0.1479
1532.196	1.2276	0.1482
1532.861	1.2269	0.1484
1533.527	1.2262	0.1487
1534.192	1.2255	0.149
1534.857	1.2248	0.1493
1535.523	1.2241	0.1495
1536.188	1.2234	0.1498
1536.853	1.2227	0.1501
1537.519	1.222	0.1504
1538.184	1.2213	0.1507
1538.849	1.2206	0.1509
1539.515	1.2199	0.1512
1540.18	1.2192	0.1515
1540.845	1.2185	0.1518
1541.511	1.2178	0.1521
1542.176	1.2171	0.1523
1542.841	1.2164	0.1526
1543.507	1.2157	0.1529
1544.172	1.215	0.1532
1544.837	1.2143	0.1535
1545.503	1.2136	0.1537
1546.168	1.2129	0.154
1546.833	1.2121	0.1543
1547.499	1.2114	0.1546
1548.164	1.2107	0.1549
1548.829	1.21	0.1552
1549.495	1.2093	0.1555
1550.16	1.2086	0.1558
1550.825	1.2079	0.156
1551.491	1.2072	0.1563
1552.156	1.2065	0.1566
1552.821	1.2057	0.1569
1553.487	1.205	0.1572
1554.152	1.2043	0.1575
1554.817	1.2036	0.1578
1555.483	1.2029	0.1581
1556.148	1.2022	0.1584
1556.813	1.2015	0.1587
1557.479	1.2007	0.159
1558.144	1.2	0.1593
1558.809	1.1993	0.1595
1559.475	1.1986	0.1598
1560.14	1.1979	0.1601
1560.805	1.1972	0.1604
1561.471	1.1964	0.1607
1562.136	1.1957	0.161
1562.801	1.195	0.1613
1563.467	1.1943	0.1616
1564.132	1.1936	0.1619
1564.797	1.1928	0.1622
1565.463	1.1921	0.1625
1566.128	1.1914	0.1628
1566.793	1.1907	0.1631
1567.459	1.1899	0.1634
1568.124	1.1892	0.1637
1568.789	1.1885	0.164
1569.455	1.1878	0.1644
1570.12	1.187	0.1647
1570.785	1.1863	0.165
1571.451	1.1856	0.1653
1572.116	1.1848	0.1656
1572.781	1.1841	0.1659
1573.447	1.1834	0.1662
1574.112	1.1827	0.1665
1574.777	1.1819	0.1668
1575.443	1.1812	0.1671
1576.108	1.1805	0.1674
1576.773	1.1797	0.1677
1577.439	1.179	0.1681
1578.104	1.1783	0.1684
1578.769	1.1775	0.1687
1579.435	1.1768	0.169
1580.1	1.1761	0.1693
1580.765	1.1753	0.1696
1581.431	1.1746	0.1699
1582.096	1.1739	0.1703
1582.761	1.1731	0.1706
1583.427	1.1724	0.1709
1584.092	1.1716	0.1712
1584.757	1.1709	0.1715
1585.423	1.1702	0.1719
1586.088	1.1694	0.1722
1586.753	1.1687	0.1725
1587.419	1.1679	0.1728
1588.084	1.1672	0.1731
1588.749	1.1665	0.1735
1589.415	1.1657	0.1738
1590.08	1.165	0.1741
1590.745	1.1642	0.1744
1591.411	1.1635	0.1748
1592.076	1.1627	0.1751
1592.741	1.162	0.1754
1593.407	1.1613	0.1758
1594.072	1.1605	0.1761
1594.737	1.1598	0.1764
1595.403	1.159	0.1767
1596.068	1.1583	0.1771
1596.733	1.1575	0.1774
1597.399	1.1568	0.1777
1598.064	1.156	0.1781
1598.729	1.1553	0.1784
1599.395	1.1545	0.1787
1600.06	1.1538	0.1791
1600.725	1.153	0.1794
1601.391	1.1523	0.1797
1602.056	1.1515	0.1801
1602.721	1.1508	0.1804
1603.387	1.15	0.1808
1604.052	1.1492	0.1811
1604.717	1.1485	0.1814
1605.383	1.1477	0.1818
1606.048	1.147	0.1821
1606.713	1.1462	0.1825
1607.379	1.1455	0.1828
1608.044	1.1447	0.1831
1608.709	1.1439	0.1835
1609.375	1.1432	0.1838
1610.04	1.1424	0.1842
1610.705	1.1417	0.1845
1611.371	1.1409	0.1849
1612.036	1.1401	0.1852
1612.701	1.1394	0.1856
1613.367	1.1386	0.1859
1614.032	1.1379	0.1863
1614.697	1.1371	0.1866
1615.363	1.1363	0.187
1616.028	1.1356	0.1873
1616.693	1.1348	0.1877
1617.359	1.134	0.188
1618.024	1.1333	0.1884
1618.689	1.1325	0.1887
1619.355	1.1317	0.1891
1620.02	1.131	0.1895
1620.685	1.1302	0.1898
1621.351	1.1294	0.1902
1622.016	1.1287	0.1905
1622.681	1.1279	0.1909
1623.347	1.1271	0.1912
1624.012	1.1263	0.1916
1624.677	1.1256	0.192
1625.343	1.1248	0.1923
1626.008	1.124	0.1927
1626.673	1.1232	0.1931
1627.339	1.1225	0.1934
1628.004	1.1217	0.1938
1628.669	1.1209	0.1942
1629.335	1.1201	0.1945
1630	1.1194	0.1949