// thickness-independent fraction of light power (for rudimentary optics) between 0 and 1
simple transmission coefficient:
1

// wavelength-independent absorption coefficient 'a' according to I(z)=I0*exp(-a*z) in [1/m]
lambert beer absorption coefficient:
93340

// three-column refractive data for TMM calculations with wavelength [nm], n, k (must be tab-separated)
refractive data:
300	2.0854	0.2032
300.665	2.0852	0.201
301.331	2.0849	0.1988
301.996	2.0846	0.1967
302.661	2.0843	0.1945
303.327	2.084	0.1923
303.992	2.0836	0.1902
304.657	2.0833	0.188
305.323	2.0829	0.1859
305.988	2.0825	0.1838
306.653	2.0822	0.1816
307.319	2.0817	0.1795
307.984	2.0813	0.1774
308.649	2.0809	0.1753
309.315	2.0805	0.1732
309.98	2.08	0.1711
310.645	2.0795	0.169
311.311	2.079	0.167
311.976	2.0785	0.1649
312.641	2.078	0.1629
313.307	2.0775	0.1608
313.972	2.077	0.1588
314.637	2.0764	0.1567
315.303	2.0758	0.1547
315.968	2.0752	0.1527
316.633	2.0747	0.1507
317.299	2.074	0.1487
317.964	2.0734	0.1467
318.629	2.0728	0.1447
319.295	2.0721	0.1427
319.96	2.0715	0.1407
320.625	2.0708	0.1388
321.291	2.0701	0.1368
321.956	2.0694	0.1349
322.621	2.0687	0.133
323.287	2.068	0.131
323.952	2.0673	0.1291
324.617	2.0665	0.1272
325.283	2.0657	0.1253
325.948	2.065	0.1234
326.613	2.0642	0.1216
327.279	2.0634	0.1197
327.944	2.0626	0.1178
328.609	2.0617	0.116
329.275	2.0609	0.1142
329.94	2.0601	0.1123
330.605	2.0592	0.1105
331.271	2.0583	0.1087
331.936	2.0574	0.1069
332.601	2.0565	0.1051
333.267	2.0556	0.1034
333.932	2.0547	0.1016
334.597	2.0538	0.0999
335.263	2.0528	0.0981
335.928	2.0519	0.0964
336.593	2.0509	0.0947
337.259	2.0499	0.093
337.924	2.0489	0.0913
338.589	2.0479	0.0896
339.255	2.0469	0.0879
339.92	2.0459	0.0863
340.585	2.0448	0.0846
341.251	2.0438	0.083
341.916	2.0427	0.0813
342.581	2.0417	0.0797
343.247	2.0406	0.0781
343.912	2.0395	0.0765
344.577	2.0384	0.075
345.243	2.0373	0.0734
345.908	2.0362	0.0719
346.573	2.035	0.0703
347.239	2.0339	0.0688
347.904	2.0327	0.0673
348.569	2.0316	0.0658
349.235	2.0304	0.0643
349.9	2.0292	0.0629
350.565	2.028	0.0614
351.231	2.0268	0.06
351.896	2.0256	0.0585
352.561	2.0244	0.0571
353.227	2.0231	0.0557
353.892	2.0219	0.0543
354.557	2.0206	0.053
355.223	2.0194	0.0516
355.888	2.0181	0.0503
356.553	2.0168	0.0489
357.219	2.0156	0.0476
357.884	2.0143	0.0463
358.549	2.013	0.0451
359.215	2.0116	0.0438
359.88	2.0103	0.0425
360.545	2.009	0.0413
361.211	2.0077	0.0401
361.876	2.0063	0.0389
362.541	2.005	0.0377
363.207	2.0036	0.0365
363.872	2.0022	0.0354
364.537	2.0009	0.0342
365.203	1.9995	0.0331
365.868	1.9981	0.032
366.533	1.9967	0.0309
367.199	1.9953	0.0299
367.864	1.9939	0.0288
368.529	1.9925	0.0278
369.195	1.9911	0.0268
369.86	1.9897	0.0258
370.525	1.9882	0.0248
371.191	1.9868	0.0238
371.856	1.9854	0.0229
372.521	1.9839	0.0219
373.187	1.9825	0.021
373.852	1.981	0.0201
374.517	1.9796	0.0193
375.183	1.9781	0.0184
375.848	1.9766	0.0176
376.513	1.9752	0.0168
377.179	1.9737	0.016
377.844	1.9722	0.0152
378.509	1.9707	0.0144
379.175	1.9693	0.0137
379.84	1.9678	0.013
380.505	1.9663	0.0123
381.171	1.9648	0.0116
381.836	1.9633	0.011
382.501	1.9619	0.0103
383.167	1.9604	0.0097
383.832	1.9589	0.0091
384.497	1.9574	0.0085
385.163	1.9559	0.008
385.828	1.9544	0.0075
386.493	1.953	0.007
387.159	1.9515	0.0065
387.824	1.95	0.006
388.489	1.9485	0.0056
389.155	1.9471	0.0052
389.82	1.9456	0.0048
390.485	1.9441	0.0044
391.151	1.9427	0.004
391.816	1.9412	0.0037
392.481	1.9398	0.0034
393.147	1.9384	0.0031
393.812	1.9369	0.0029
394.477	1.9355	0.0027
395.143	1.9341	0.0024
395.808	1.9327	0.0023
396.473	1.9313	0.0021
397.139	1.93	0.002
397.804	1.9286	0.0019
398.469	1.9273	0.0018
399.135	1.926	0.0017
399.8	1.9247	0.0017
400.465	1.9234	0.0017
401.131	1.9222	0.0017
401.796	1.921	0.0017
402.461	1.9199	0.0017
403.127	1.9191	0.0017
403.792	1.9176	0.0017
404.457	1.9165	0.0017
405.123	1.9154	0.0017
405.788	1.9144	0.0018
406.453	1.9133	0.0018
407.119	1.9123	0.0018
407.784	1.9113	0.0018
408.449	1.9102	0.0018
409.115	1.9092	0.0018
409.78	1.9083	0.0018
410.445	1.9073	0.0018
411.111	1.9063	0.0018
411.776	1.9054	0.0018
412.441	1.9044	0.0019
413.107	1.9035	0.0019
413.772	1.9026	0.0019
414.437	1.9017	0.0019
415.103	1.9008	0.0019
415.768	1.8999	0.0019
416.433	1.899	0.0019
417.099	1.8981	0.0019
417.764	1.8973	0.0019
418.429	1.8964	0.0019
419.095	1.8955	0.002
419.76	1.8947	0.002
420.425	1.8939	0.002
421.091	1.893	0.002
421.756	1.8922	0.002
422.421	1.8914	0.002
423.087	1.8906	0.002
423.752	1.8898	0.002
424.417	1.889	0.002
425.083	1.8882	0.002
425.748	1.8874	0.0021
426.413	1.8866	0.0021
427.079	1.8859	0.0021
427.744	1.8851	0.0021
428.409	1.8843	0.0021
429.075	1.8836	0.0021
429.74	1.8828	0.0021
430.405	1.8821	0.0021
431.071	1.8813	0.0021
431.736	1.8806	0.0021
432.401	1.8799	0.0022
433.067	1.8791	0.0022
433.732	1.8784	0.0022
434.397	1.8777	0.0022
435.063	1.877	0.0022
435.728	1.8763	0.0022
436.393	1.8756	0.0022
437.059	1.8749	0.0022
437.724	1.8742	0.0022
438.389	1.8735	0.0023
439.055	1.8728	0.0023
439.72	1.8721	0.0023
440.385	1.8715	0.0023
441.051	1.8708	0.0023
441.716	1.8701	0.0023
442.381	1.8695	0.0023
443.047	1.8688	0.0023
443.712	1.8681	0.0023
444.377	1.8675	0.0024
445.043	1.8668	0.0024
445.708	1.8662	0.0024
446.373	1.8655	0.0024
447.039	1.8649	0.0024
447.704	1.8643	0.0024
448.369	1.8636	0.0024
449.035	1.863	0.0024
449.7	1.8624	0.0025
450.365	1.8618	0.0025
451.031	1.8611	0.0025
451.696	1.8605	0.0025
452.361	1.8599	0.0025
453.027	1.8593	0.0025
453.692	1.8587	0.0025
454.357	1.8581	0.0025
455.023	1.8575	0.0025
455.688	1.8569	0.0026
456.353	1.8563	0.0026
457.019	1.8557	0.0026
457.684	1.8551	0.0026
458.349	1.8545	0.0026
459.015	1.8539	0.0026
459.68	1.8533	0.0026
460.345	1.8528	0.0026
461.011	1.8522	0.0027
461.676	1.8516	0.0027
462.341	1.851	0.0027
463.007	1.8505	0.0027
463.672	1.8499	0.0027
464.337	1.8493	0.0027
465.003	1.8488	0.0027
465.668	1.8482	0.0027
466.333	1.8477	0.0028
466.998	1.8471	0.0028
467.664	1.8466	0.0028
468.329	1.846	0.0028
468.994	1.8455	0.0028
469.66	1.8449	0.0028
470.325	1.8444	0.0028
470.99	1.8438	0.0028
471.656	1.8433	0.0029
472.321	1.8427	0.0029
472.986	1.8422	0.0029
473.652	1.8417	0.0029
474.317	1.8411	0.0029
474.982	1.8406	0.0029
475.648	1.8401	0.0029
476.313	1.8395	0.0029
476.978	1.839	0.003
477.644	1.8385	0.003
478.309	1.838	0.003
478.974	1.8375	0.003
479.64	1.8369	0.003
480.305	1.8364	0.003
480.97	1.8359	0.003
481.636	1.8354	0.0031
482.301	1.8349	0.0031
482.966	1.8344	0.0031
483.632	1.8339	0.0031
484.297	1.8334	0.0031
484.962	1.8329	0.0031
485.628	1.8324	0.0031
486.293	1.8319	0.0032
486.958	1.8314	0.0032
487.624	1.8309	0.0032
488.289	1.8304	0.0032
488.954	1.8299	0.0032
489.62	1.8294	0.0032
490.285	1.8289	0.0032
490.95	1.8284	0.0032
491.616	1.8279	0.0033
492.281	1.8274	0.0033
492.946	1.8269	0.0033
493.612	1.8265	0.0033
494.277	1.826	0.0033
494.942	1.8255	0.0033
495.608	1.825	0.0033
496.273	1.8245	0.0034
496.938	1.8241	0.0034
497.604	1.8236	0.0034
498.269	1.8231	0.0034
498.934	1.8226	0.0034
499.6	1.8222	0.0034
500.265	1.8217	0.0035
500.93	1.8212	0.0035
501.596	1.8208	0.0035
502.261	1.8203	0.0035
502.926	1.8198	0.0035
503.592	1.8194	0.0035
504.257	1.8189	0.0035
504.922	1.8184	0.0036
505.588	1.818	0.0036
506.253	1.8175	0.0036
506.918	1.8171	0.0036
507.584	1.8166	0.0036
508.249	1.8161	0.0036
508.914	1.8157	0.0036
509.58	1.8152	0.0037
510.245	1.8148	0.0037
510.91	1.8143	0.0037
511.576	1.8139	0.0037
512.241	1.8134	0.0037
512.906	1.813	0.0037
513.572	1.8125	0.0038
514.237	1.8121	0.0038
514.902	1.8116	0.0038
515.568	1.8112	0.0038
516.233	1.8108	0.0038
516.898	1.8103	0.0038
517.564	1.8099	0.0038
518.229	1.8094	0.0039
518.894	1.809	0.0039
519.56	1.8086	0.0039
520.225	1.8081	0.0039
520.89	1.8077	0.0039
521.556	1.8072	0.0039
522.221	1.8068	0.004
522.886	1.8064	0.004
523.552	1.8059	0.004
524.217	1.8055	0.004
524.882	1.8051	0.004
525.548	1.8046	0.004
526.213	1.8042	0.0041
526.878	1.8038	0.0041
527.544	1.8034	0.0041
528.209	1.8029	0.0041
528.874	1.8025	0.0041
529.54	1.8021	0.0041
530.205	1.8016	0.0042
530.87	1.8012	0.0042
531.536	1.8008	0.0042
532.201	1.8004	0.0042
532.866	1.8	0.0042
533.532	1.7995	0.0042
534.197	1.7991	0.0043
534.862	1.7987	0.0043
535.528	1.7983	0.0043
536.193	1.7979	0.0043
536.858	1.7974	0.0043
537.524	1.797	0.0043
538.189	1.7966	0.0044
538.854	1.7962	0.0044
539.52	1.7958	0.0044
540.185	1.7954	0.0044
540.85	1.7949	0.0044
541.516	1.7945	0.0044
542.181	1.7941	0.0045
542.846	1.7937	0.0045
543.512	1.7933	0.0045
544.177	1.7929	0.0045
544.842	1.7925	0.0045
545.508	1.7921	0.0045
546.173	1.7916	0.0046
546.838	1.7912	0.0046
547.504	1.7908	0.0046
548.169	1.7904	0.0046
548.834	1.79	0.0046
549.5	1.7896	0.0047
550.165	1.7892	0.0047
550.83	1.7888	0.0047
551.496	1.7884	0.0047
552.161	1.788	0.0047
552.826	1.7876	0.0047
553.492	1.7872	0.0048
554.157	1.7868	0.0048
554.822	1.7864	0.0048
555.488	1.786	0.0048
556.153	1.7856	0.0048
556.818	1.7852	0.0049
557.484	1.7848	0.0049
558.149	1.7844	0.0049
558.814	1.784	0.0049
559.48	1.7836	0.0049
560.145	1.7832	0.0049
560.81	1.7828	0.005
561.476	1.7824	0.005
562.141	1.782	0.005
562.806	1.7816	0.005
563.472	1.7812	0.005
564.137	1.7808	0.0051
564.802	1.7804	0.0051
565.468	1.78	0.0051
566.133	1.7796	0.0051
566.798	1.7792	0.0051
567.464	1.7788	0.0052
568.129	1.7785	0.0052
568.794	1.7781	0.0052
569.46	1.7777	0.0052
570.125	1.7773	0.0052
570.79	1.7769	0.0053
571.456	1.7765	0.0053
572.121	1.7761	0.0053
572.786	1.7757	0.0053
573.452	1.7753	0.0053
574.117	1.7749	0.0053
574.782	1.7746	0.0054
575.448	1.7742	0.0054
576.113	1.7738	0.0054
576.778	1.7734	0.0054
577.444	1.773	0.0054
578.109	1.7726	0.0055
578.774	1.7722	0.0055
579.44	1.7718	0.0055
580.105	1.7715	0.0055
580.77	1.7711	0.0055
581.436	1.7707	0.0056
582.101	1.7703	0.0056
582.766	1.7699	0.0056
583.432	1.7695	0.0056
584.097	1.7692	0.0057
584.762	1.7688	0.0057
585.428	1.7684	0.0057
586.093	1.768	0.0057
586.758	1.7676	0.0057
587.424	1.7672	0.0058
588.089	1.7669	0.0058
588.754	1.7665	0.0058
589.42	1.7661	0.0058
590.085	1.7657	0.0058
590.75	1.7653	0.0059
591.416	1.765	0.0059
592.081	1.7646	0.0059
592.746	1.7642	0.0059
593.412	1.7638	0.0059
594.077	1.7634	0.006
594.742	1.7631	0.006
595.408	1.7627	0.006
596.073	1.7623	0.006
596.738	1.7619	0.006
597.404	1.7615	0.0061
598.069	1.7612	0.0061
598.734	1.7608	0.0061
599.4	1.7604	0.0061
600.065	1.76	0.0062
600.73	1.7597	0.0062
601.396	1.7593	0.0062
602.061	1.7589	0.0062
602.726	1.7585	0.0062
603.392	1.7581	0.0063
604.057	1.7578	0.0063
604.722	1.7574	0.0063
605.388	1.757	0.0063
606.053	1.7566	0.0064
606.718	1.7563	0.0064
607.384	1.7559	0.0064
608.049	1.7555	0.0064
608.714	1.7551	0.0064
609.38	1.7548	0.0065
610.045	1.7544	0.0065
610.71	1.754	0.0065
611.376	1.7537	0.0065
612.041	1.7533	0.0066
612.706	1.7529	0.0066
613.372	1.7525	0.0066
614.037	1.7522	0.0066
614.702	1.7518	0.0066
615.368	1.7514	0.0067
616.033	1.751	0.0067
616.698	1.7507	0.0067
617.364	1.7503	0.0067
618.029	1.7499	0.0068
618.694	1.7495	0.0068
619.36	1.7492	0.0068
620.025	1.7488	0.0068
620.69	1.7484	0.0069
621.356	1.7481	0.0069
622.021	1.7477	0.0069
622.686	1.7473	0.0069
623.352	1.7469	0.007
624.017	1.7466	0.007
624.682	1.7462	0.007
625.348	1.7458	0.007
626.013	1.7455	0.007
626.678	1.7451	0.0071
627.344	1.7447	0.0071
628.009	1.7444	0.0071
628.674	1.744	0.0071
629.34	1.7436	0.0072
630.005	1.7432	0.0072
630.67	1.7429	0.0072
631.336	1.7425	0.0072
632.001	1.7421	0.0073
632.666	1.7418	0.0073
633.332	1.7414	0.0073
633.997	1.741	0.0073
634.662	1.7407	0.0074
635.328	1.7403	0.0074
635.993	1.7399	0.0074
636.658	1.7395	0.0074
637.324	1.7392	0.0075
637.989	1.7388	0.0075
638.654	1.7384	0.0075
639.32	1.7381	0.0075
639.985	1.7377	0.0076
640.65	1.7373	0.0076
641.316	1.737	0.0076
641.981	1.7366	0.0076
642.646	1.7362	0.0077
643.312	1.7359	0.0077
643.977	1.7355	0.0077
644.642	1.7351	0.0077
645.308	1.7348	0.0078
645.973	1.7344	0.0078
646.638	1.734	0.0078
647.304	1.7337	0.0078
647.969	1.7333	0.0079
648.634	1.7329	0.0079
649.3	1.7325	0.0079
649.965	1.7322	0.0079
650.63	1.7318	0.008
651.296	1.7314	0.008
651.961	1.7311	0.008
652.626	1.7307	0.0081
653.292	1.7303	0.0081
653.957	1.73	0.0081
654.622	1.7296	0.0081
655.288	1.7292	0.0082
655.953	1.7289	0.0082
656.618	1.7285	0.0082
657.284	1.7281	0.0082
657.949	1.7278	0.0083
658.614	1.7274	0.0083
659.28	1.727	0.0083
659.945	1.7267	0.0083
660.61	1.7263	0.0084
661.276	1.7259	0.0084
661.941	1.7256	0.0084
662.606	1.7252	0.0085
663.272	1.7248	0.0085
663.937	1.7245	0.0085
664.602	1.7241	0.0085
665.268	1.7237	0.0086
665.933	1.7234	0.0086
666.598	1.723	0.0086
667.264	1.7226	0.0086
667.929	1.7223	0.0087
668.594	1.7219	0.0087
669.26	1.7215	0.0087
669.925	1.7212	0.0088
670.59	1.7208	0.0088
671.256	1.7204	0.0088
671.921	1.72	0.0088
672.586	1.7197	0.0089
673.252	1.7193	0.0089
673.917	1.7189	0.0089
674.582	1.7186	0.009
675.248	1.7182	0.009
675.913	1.7178	0.009
676.578	1.7175	0.009
677.244	1.7171	0.0091
677.909	1.7167	0.0091
678.574	1.7164	0.0091
679.24	1.716	0.0092
679.905	1.7156	0.0092
680.57	1.7153	0.0092
681.236	1.7149	0.0092
681.901	1.7145	0.0093
682.566	1.7142	0.0093
683.232	1.7138	0.0093
683.897	1.7134	0.0094
684.562	1.7131	0.0094
685.228	1.7127	0.0094
685.893	1.7123	0.0094
686.558	1.7119	0.0095
687.224	1.7116	0.0095
687.889	1.7112	0.0095
688.554	1.7108	0.0096
689.22	1.7105	0.0096
689.885	1.7101	0.0096
690.55	1.7097	0.0096
691.216	1.7094	0.0097
691.881	1.709	0.0097
692.546	1.7086	0.0097
693.212	1.7083	0.0098
693.877	1.7079	0.0098
694.542	1.7075	0.0098
695.208	1.7072	0.0099
695.873	1.7068	0.0099
696.538	1.7064	0.0099
697.204	1.706	0.01
697.869	1.7057	0.01
698.534	1.7053	0.01
699.2	1.7049	0.01
699.865	1.7046	0.0101
700.53	1.7042	0.0101
701.196	1.7038	0.0101
701.861	1.7035	0.0102
702.526	1.7031	0.0102
703.192	1.7027	0.0102
703.857	1.7023	0.0103
704.522	1.702	0.0103
705.188	1.7016	0.0103
705.853	1.7012	0.0104
706.518	1.7009	0.0104
707.184	1.7005	0.0104
707.849	1.7001	0.0105
708.514	1.6997	0.0105
709.18	1.6994	0.0105
709.845	1.699	0.0105
710.51	1.6986	0.0106
711.176	1.6983	0.0106
711.841	1.6979	0.0106
712.506	1.6975	0.0107
713.172	1.6971	0.0107
713.837	1.6968	0.0107
714.502	1.6964	0.0108
715.168	1.696	0.0108
715.833	1.6957	0.0108
716.498	1.6953	0.0109
717.164	1.6949	0.0109
717.829	1.6945	0.0109
718.494	1.6942	0.011
719.16	1.6938	0.011
719.825	1.6934	0.011
720.49	1.693	0.0111
721.156	1.6927	0.0111
721.821	1.6923	0.0111
722.486	1.6919	0.0112
723.152	1.6916	0.0112
723.817	1.6912	0.0112
724.482	1.6908	0.0113
725.148	1.6904	0.0113
725.813	1.6901	0.0113
726.478	1.6897	0.0114
727.144	1.6893	0.0114
727.809	1.6889	0.0114
728.474	1.6886	0.0115
729.14	1.6882	0.0115
729.805	1.6878	0.0115
730.47	1.6874	0.0116
731.136	1.6871	0.0116
731.801	1.6867	0.0116
732.466	1.6863	0.0117
733.132	1.6859	0.0117
733.797	1.6856	0.0117
734.462	1.6852	0.0118
735.128	1.6848	0.0118
735.793	1.6844	0.0118
736.458	1.6841	0.0119
737.124	1.6837	0.0119
737.789	1.6833	0.0119
738.454	1.6829	0.012
739.12	1.6825	0.012
739.785	1.6822	0.0121
740.45	1.6818	0.0121
741.116	1.6814	0.0121
741.781	1.681	0.0122
742.446	1.6807	0.0122
743.112	1.6803	0.0122
743.777	1.6799	0.0123
744.442	1.6795	0.0123
745.108	1.6791	0.0123
745.773	1.6788	0.0124
746.438	1.6784	0.0124
747.104	1.678	0.0124
747.769	1.6776	0.0125
748.434	1.6773	0.0125
749.1	1.6769	0.0126
749.765	1.6765	0.0126
750.43	1.6761	0.0126
751.096	1.6757	0.0127
751.761	1.6754	0.0127
752.426	1.675	0.0127
753.092	1.6746	0.0128
753.757	1.6742	0.0128
754.422	1.6738	0.0128
755.088	1.6735	0.0129
755.753	1.6731	0.0129
756.418	1.6727	0.013
757.084	1.6723	0.013
757.749	1.6719	0.013
758.414	1.6715	0.0131
759.08	1.6712	0.0131
759.745	1.6708	0.0131
760.41	1.6704	0.0132
761.076	1.67	0.0132
761.741	1.6696	0.0133
762.406	1.6693	0.0133
763.072	1.6689	0.0133
763.737	1.6685	0.0134
764.402	1.6681	0.0134
765.068	1.6677	0.0134
765.733	1.6673	0.0135
766.398	1.667	0.0135
767.064	1.6666	0.0136
767.729	1.6662	0.0136
768.394	1.6658	0.0136
769.06	1.6654	0.0137
769.725	1.665	0.0137
770.39	1.6646	0.0137
771.056	1.6643	0.0138
771.721	1.6639	0.0138
772.386	1.6635	0.0139
773.052	1.6631	0.0139
773.717	1.6627	0.0139
774.382	1.6623	0.014
775.048	1.6619	0.014
775.713	1.6616	0.0141
776.378	1.6612	0.0141
777.044	1.6608	0.0141
777.709	1.6604	0.0142
778.374	1.66	0.0142
779.04	1.6596	0.0143
779.705	1.6592	0.0143
780.37	1.6588	0.0143
781.036	1.6585	0.0144
781.701	1.6581	0.0144
782.366	1.6577	0.0145
783.032	1.6573	0.0145
783.697	1.6569	0.0145
784.362	1.6565	0.0146
785.028	1.6561	0.0146
785.693	1.6557	0.0147
786.358	1.6553	0.0147
787.024	1.655	0.0147
787.689	1.6546	0.0148
788.354	1.6542	0.0148
789.02	1.6538	0.0149
789.685	1.6534	0.0149
790.35	1.653	0.0149
791.016	1.6526	0.015
791.681	1.6522	0.015
792.346	1.6518	0.0151
793.012	1.6514	0.0151
793.677	1.651	0.0152
794.342	1.6507	0.0152
795.008	1.6503	0.0152
795.673	1.6499	0.0153
796.338	1.6495	0.0153
797.004	1.6491	0.0154
797.669	1.6487	0.0154
798.334	1.6483	0.0154
798.999	1.6479	0.0155
799.665	1.6475	0.0155
800.33	1.6471	0.0156
800.995	1.6467	0.0156
801.661	1.6463	0.0157
802.326	1.6459	0.0157
802.991	1.6455	0.0157
803.657	1.6451	0.0158
804.322	1.6447	0.0158
804.987	1.6443	0.0159
805.653	1.644	0.0159
806.318	1.6436	0.016
806.983	1.6432	0.016
807.649	1.6428	0.016
808.314	1.6424	0.0161
808.979	1.642	0.0161
809.645	1.6416	0.0162
810.31	1.6412	0.0162
810.975	1.6408	0.0163
811.641	1.6404	0.0163
812.306	1.64	0.0163
812.971	1.6396	0.0164
813.637	1.6392	0.0164
814.302	1.6388	0.0165
814.967	1.6384	0.0165
815.633	1.638	0.0166
816.298	1.6376	0.0166
816.963	1.6372	0.0167
817.629	1.6368	0.0167
818.294	1.6364	0.0167
818.959	1.636	0.0168
819.625	1.6356	0.0168
820.29	1.6352	0.0169
820.955	1.6348	0.0169
821.621	1.6344	0.017
822.286	1.634	0.017
822.951	1.6336	0.0171
823.617	1.6332	0.0171
824.282	1.6328	0.0172
824.947	1.6324	0.0172
825.613	1.632	0.0172
826.278	1.6316	0.0173
826.943	1.6312	0.0173
827.609	1.6307	0.0174
828.274	1.6303	0.0174
828.939	1.6299	0.0175
829.605	1.6295	0.0175
830.27	1.6291	0.0176
830.935	1.6287	0.0176
831.601	1.6283	0.0177
832.266	1.6279	0.0177
832.931	1.6275	0.0178
833.597	1.6271	0.0178
834.262	1.6267	0.0178
834.927	1.6263	0.0179
835.593	1.6259	0.0179
836.258	1.6255	0.018
836.923	1.6251	0.018
837.589	1.6247	0.0181
838.254	1.6242	0.0181
838.919	1.6238	0.0182
839.585	1.6234	0.0182
840.25	1.623	0.0183
840.915	1.6226	0.0183
841.581	1.6222	0.0184
842.246	1.6218	0.0184
842.911	1.6214	0.0185
843.577	1.621	0.0185
844.242	1.6206	0.0186
844.907	1.6202	0.0186
845.573	1.6197	0.0187
846.238	1.6193	0.0187
846.903	1.6189	0.0188
847.569	1.6185	0.0188
848.234	1.6181	0.0189
848.899	1.6177	0.0189
849.565	1.6173	0.019
850.23	1.6169	0.019
850.895	1.6164	0.0191
851.561	1.616	0.0191
852.226	1.6156	0.0192
852.891	1.6152	0.0192
853.557	1.6148	0.0193
854.222	1.6144	0.0193
854.887	1.614	0.0194
855.553	1.6135	0.0194
856.218	1.6131	0.0195
856.883	1.6127	0.0195
857.549	1.6123	0.0196
858.214	1.6119	0.0196
858.879	1.6115	0.0197
859.545	1.611	0.0197
860.21	1.6106	0.0198
860.875	1.6102	0.0198
861.541	1.6098	0.0199
862.206	1.6094	0.0199
862.871	1.609	0.02
863.537	1.6085	0.02
864.202	1.6081	0.0201
864.867	1.6077	0.0201
865.533	1.6073	0.0202
866.198	1.6069	0.0202
866.863	1.6064	0.0203
867.529	1.606	0.0203
868.194	1.6056	0.0204
868.859	1.6052	0.0204
869.525	1.6048	0.0205
870.19	1.6043	0.0205
870.855	1.6039	0.0206
871.521	1.6035	0.0206
872.186	1.6031	0.0207
872.851	1.6026	0.0207
873.517	1.6022	0.0208
874.182	1.6018	0.0208
874.847	1.6014	0.0209
875.513	1.601	0.0209
876.178	1.6005	0.021
876.843	1.6001	0.0211
877.509	1.5997	0.0211
878.174	1.5993	0.0212
878.839	1.5988	0.0212
879.505	1.5984	0.0213
880.17	1.598	0.0213
880.835	1.5976	0.0214
881.501	1.5971	0.0214
882.166	1.5967	0.0215
882.831	1.5963	0.0215
883.497	1.5958	0.0216
884.162	1.5954	0.0216
884.827	1.595	0.0217
885.493	1.5946	0.0218
886.158	1.5941	0.0218
886.823	1.5937	0.0219
887.489	1.5933	0.0219
888.154	1.5928	0.022
888.819	1.5924	0.022
889.485	1.592	0.0221
890.15	1.5916	0.0221
890.815	1.5911	0.0222
891.481	1.5907	0.0223
892.146	1.5903	0.0223
892.811	1.5898	0.0224
893.477	1.5894	0.0224
894.142	1.589	0.0225
894.807	1.5885	0.0225
895.473	1.5881	0.0226
896.138	1.5877	0.0226
896.803	1.5872	0.0227
897.469	1.5868	0.0228
898.134	1.5864	0.0228
898.799	1.5859	0.0229
899.465	1.5855	0.0229
900.13	1.5851	0.023
900.795	1.5846	0.023
901.461	1.5842	0.0231
902.126	1.5838	0.0232
902.791	1.5833	0.0232
903.457	1.5829	0.0233
904.122	1.5825	0.0233
904.787	1.582	0.0234
905.453	1.5816	0.0234
906.118	1.5811	0.0235
906.783	1.5807	0.0236
907.449	1.5803	0.0236
908.114	1.5798	0.0237
908.779	1.5794	0.0237
909.445	1.5789	0.0238
910.11	1.5785	0.0239
910.775	1.5781	0.0239
911.441	1.5776	0.024
912.106	1.5772	0.024
912.771	1.5767	0.0241
913.437	1.5763	0.0241
914.102	1.5759	0.0242
914.767	1.5754	0.0243
915.433	1.575	0.0243
916.098	1.5745	0.0244
916.763	1.5741	0.0244
917.429	1.5736	0.0245
918.094	1.5732	0.0246
918.759	1.5728	0.0246
919.425	1.5723	0.0247
920.09	1.5719	0.0247
920.755	1.5714	0.0248
921.421	1.571	0.0249
922.086	1.5705	0.0249
922.751	1.5701	0.025
923.417	1.5696	0.0251
924.082	1.5692	0.0251
924.747	1.5687	0.0252
925.413	1.5683	0.0252
926.078	1.5679	0.0253
926.743	1.5674	0.0254
927.409	1.567	0.0254
928.074	1.5665	0.0255
928.739	1.5661	0.0255
929.405	1.5656	0.0256
930.07	1.5652	0.0257
930.735	1.5647	0.0257
931.401	1.5643	0.0258
932.066	1.5638	0.0259
932.731	1.5634	0.0259
933.397	1.5629	0.026
934.062	1.5625	0.026
934.727	1.562	0.0261
935.393	1.5616	0.0262
936.058	1.5611	0.0262
936.723	1.5606	0.0263
937.389	1.5602	0.0264
938.054	1.5597	0.0264
938.719	1.5593	0.0265
939.385	1.5588	0.0265
940.05	1.5584	0.0266
940.715	1.5579	0.0267
941.381	1.5575	0.0267
942.046	1.557	0.0268
942.711	1.5566	0.0269
943.377	1.5561	0.0269
944.042	1.5556	0.027
944.707	1.5552	0.0271
945.373	1.5547	0.0271
946.038	1.5543	0.0272
946.703	1.5538	0.0273
947.369	1.5534	0.0273
948.034	1.5529	0.0274
948.699	1.5524	0.0275
949.365	1.552	0.0275
950.03	1.5515	0.0276
950.695	1.5511	0.0277
951.361	1.5506	0.0277
952.026	1.5501	0.0278
952.691	1.5497	0.0279
953.357	1.5492	0.0279
954.022	1.5488	0.028
954.687	1.5483	0.0281
955.353	1.5478	0.0281
956.018	1.5474	0.0282
956.683	1.5469	0.0283
957.349	1.5464	0.0283
958.014	1.546	0.0284
958.679	1.5455	0.0285
959.345	1.545	0.0285
960.01	1.5446	0.0286
960.675	1.5441	0.0287
961.341	1.5436	0.0287
962.006	1.5432	0.0288
962.671	1.5427	0.0289
963.337	1.5422	0.0289
964.002	1.5418	0.029
964.667	1.5413	0.0291
965.333	1.5408	0.0291
965.998	1.5404	0.0292
966.663	1.5399	0.0293
967.329	1.5394	0.0293
967.994	1.539	0.0294
968.659	1.5385	0.0295
969.325	1.538	0.0295
969.99	1.5376	0.0296
970.655	1.5371	0.0297
971.321	1.5366	0.0298
971.986	1.5361	0.0298
972.651	1.5357	0.0299
973.317	1.5352	0.03
973.982	1.5347	0.03
974.647	1.5343	0.0301
975.313	1.5338	0.0302
975.978	1.5333	0.0303
976.643	1.5328	0.0303
977.309	1.5324	0.0304
977.974	1.5319	0.0305
978.639	1.5314	0.0305
979.305	1.5309	0.0306
979.97	1.5305	0.0307
980.635	1.53	0.0308
981.301	1.5295	0.0308
981.966	1.529	0.0309
982.631	1.5285	0.031
983.297	1.5281	0.031
983.962	1.5276	0.0311
984.627	1.5271	0.0312
985.293	1.5266	0.0313
985.958	1.5261	0.0313
986.623	1.5257	0.0314
987.289	1.5252	0.0315
987.954	1.5247	0.0315
988.619	1.5242	0.0316
989.285	1.5237	0.0317
989.95	1.5233	0.0318
990.615	1.5228	0.0318
991.281	1.5223	0.0319
991.946	1.5218	0.032
992.611	1.5213	0.0321
993.277	1.5208	0.0321
993.942	1.5204	0.0322
994.607	1.5199	0.0323
995.273	1.5194	0.0324
995.938	1.5189	0.0324
996.603	1.5184	0.0325
997.269	1.5179	0.0326
997.934	1.5175	0.0327
998.599	1.517	0.0327
999.265	1.5165	0.0328
999.93	1.516	0.0329
1000.595	1.5155	0.033
1001.261	1.515	0.033
1001.926	1.5145	0.0331
1002.591	1.514	0.0332
1003.257	1.5135	0.0333
1003.922	1.5131	0.0333
1004.587	1.5126	0.0334
1005.253	1.5121	0.0335
1005.918	1.5116	0.0336
1006.583	1.5111	0.0337
1007.249	1.5106	0.0337
1007.914	1.5101	0.0338
1008.579	1.5096	0.0339
1009.245	1.5091	0.034
1009.91	1.5086	0.034
1010.575	1.5081	0.0341
1011.241	1.5076	0.0342
1011.906	1.5071	0.0343
1012.571	1.5067	0.0344
1013.237	1.5062	0.0344
1013.902	1.5057	0.0345
1014.567	1.5052	0.0346
1015.233	1.5047	0.0347
1015.898	1.5042	0.0348
1016.563	1.5037	0.0348
1017.229	1.5032	0.0349
1017.894	1.5027	0.035
1018.559	1.5022	0.0351
1019.225	1.5017	0.0352
1019.89	1.5012	0.0352
1020.555	1.5007	0.0353
1021.221	1.5002	0.0354
1021.886	1.4997	0.0355
1022.551	1.4992	0.0356
1023.217	1.4987	0.0356
1023.882	1.4982	0.0357
1024.547	1.4977	0.0358
1025.213	1.4972	0.0359
1025.878	1.4967	0.036
1026.543	1.4962	0.036
1027.209	1.4957	0.0361
1027.874	1.4952	0.0362
1028.539	1.4947	0.0363
1029.205	1.4941	0.0364
1029.87	1.4936	0.0365
1030.535	1.4931	0.0365
1031.201	1.4926	0.0366
1031.866	1.4921	0.0367
1032.531	1.4916	0.0368
1033.197	1.4911	0.0369
1033.862	1.4906	0.037
1034.527	1.4901	0.037
1035.193	1.4896	0.0371
1035.858	1.4891	0.0372
1036.523	1.4886	0.0373
1037.189	1.4881	0.0374
1037.854	1.4875	0.0375
1038.519	1.487	0.0375
1039.185	1.4865	0.0376
1039.85	1.486	0.0377
1040.515	1.4855	0.0378
1041.181	1.485	0.0379
1041.846	1.4845	0.038
1042.511	1.484	0.0381
1043.177	1.4834	0.0381
1043.842	1.4829	0.0382
1044.507	1.4824	0.0383
1045.173	1.4819	0.0384
1045.838	1.4814	0.0385
1046.503	1.4809	0.0386
1047.169	1.4804	0.0387
1047.834	1.4798	0.0387
1048.499	1.4793	0.0388
1049.165	1.4788	0.0389
1049.83	1.4783	0.039
1050.495	1.4778	0.0391
1051.161	1.4772	0.0392
1051.826	1.4767	0.0393
1052.491	1.4762	0.0394
1053.157	1.4757	0.0394
1053.822	1.4752	0.0395
1054.487	1.4746	0.0396
1055.153	1.4741	0.0397
1055.818	1.4736	0.0398
1056.483	1.4731	0.0399
1057.149	1.4726	0.04
1057.814	1.472	0.0401
1058.479	1.4715	0.0402
1059.145	1.471	0.0402
1059.81	1.4705	0.0403
1060.475	1.4699	0.0404
1061.141	1.4694	0.0405
1061.806	1.4689	0.0406
1062.471	1.4684	0.0407
1063.137	1.4678	0.0408
1063.802	1.4673	0.0409
1064.467	1.4668	0.041
1065.133	1.4662	0.0411
1065.798	1.4657	0.0411
1066.463	1.4652	0.0412
1067.129	1.4647	0.0413
1067.794	1.4641	0.0414
1068.459	1.4636	0.0415
1069.125	1.4631	0.0416
1069.79	1.4625	0.0417
1070.455	1.462	0.0418
1071.121	1.4615	0.0419
1071.786	1.4609	0.042
1072.451	1.4604	0.0421
1073.117	1.4599	0.0422
1073.782	1.4593	0.0423
1074.447	1.4588	0.0423
1075.113	1.4583	0.0424
1075.778	1.4577	0.0425
1076.443	1.4572	0.0426
1077.109	1.4567	0.0427
1077.774	1.4561	0.0428
1078.439	1.4556	0.0429
1079.105	1.4551	0.043
1079.77	1.4545	0.0431
1080.435	1.454	0.0432
1081.101	1.4534	0.0433
1081.766	1.4529	0.0434
1082.431	1.4524	0.0435
1083.097	1.4518	0.0436
1083.762	1.4513	0.0437
1084.427	1.4507	0.0438
1085.093	1.4502	0.0439
1085.758	1.4497	0.044
1086.423	1.4491	0.0441
1087.089	1.4486	0.0442
1087.754	1.448	0.0443
1088.419	1.4475	0.0444
1089.085	1.4469	0.0445
1089.75	1.4464	0.0446
1090.415	1.4459	0.0446
1091.081	1.4453	0.0447
1091.746	1.4448	0.0448
1092.411	1.4442	0.0449
1093.077	1.4437	0.045
1093.742	1.4431	0.0451
1094.407	1.4426	0.0452
1095.073	1.442	0.0453
1095.738	1.4415	0.0454
1096.403	1.4409	0.0455
1097.069	1.4404	0.0456
1097.734	1.4398	0.0457
1098.399	1.4393	0.0458
1099.065	1.4387	0.0459
1099.73	1.4382	0.046
1100.395	1.4376	0.0461
1101.061	1.4371	0.0462
1101.726	1.4365	0.0463
1102.391	1.436	0.0464
1103.057	1.4354	0.0465
1103.722	1.4349	0.0466
1104.387	1.4343	0.0467
1105.053	1.4337	0.0469
1105.718	1.4332	0.047
1106.383	1.4326	0.0471
1107.049	1.4321	0.0472
1107.714	1.4315	0.0473
1108.379	1.431	0.0474
1109.045	1.4304	0.0475
1109.71	1.4298	0.0476
1110.375	1.4293	0.0477
1111.041	1.4287	0.0478
1111.706	1.4282	0.0479
1112.371	1.4276	0.048
1113.037	1.427	0.0481
1113.702	1.4265	0.0482
1114.367	1.4259	0.0483
1115.033	1.4254	0.0484
1115.698	1.4248	0.0485
1116.363	1.4242	0.0486
1117.029	1.4237	0.0487
1117.694	1.4231	0.0488
1118.359	1.4225	0.0489
1119.025	1.422	0.049
1119.69	1.4214	0.0491
1120.355	1.4208	0.0493
1121.021	1.4203	0.0494
1121.686	1.4197	0.0495
1122.351	1.4191	0.0496
1123.017	1.4186	0.0497
1123.682	1.418	0.0498
1124.347	1.4174	0.0499
1125.013	1.4169	0.05
1125.678	1.4163	0.0501
1126.343	1.4157	0.0502
1127.009	1.4151	0.0503
1127.674	1.4146	0.0504
1128.339	1.414	0.0505
1129.005	1.4134	0.0507
1129.67	1.4129	0.0508
1130.335	1.4123	0.0509
1131.001	1.4117	0.051
1131.666	1.4111	0.0511
1132.331	1.4106	0.0512
1132.996	1.41	0.0513
1133.662	1.4094	0.0514
1134.327	1.4088	0.0515
1134.992	1.4083	0.0517
1135.658	1.4077	0.0518
1136.323	1.4071	0.0519
1136.988	1.4065	0.052
1137.654	1.4059	0.0521
1138.319	1.4054	0.0522
1138.984	1.4048	0.0523
1139.65	1.4042	0.0524
1140.315	1.4036	0.0525
1140.98	1.403	0.0527
1141.646	1.4025	0.0528
1142.311	1.4019	0.0529
1142.976	1.4013	0.053
1143.642	1.4007	0.0531
1144.307	1.4001	0.0532
1144.972	1.3995	0.0533
1145.638	1.399	0.0535
1146.303	1.3984	0.0536
1146.968	1.3978	0.0537
1147.634	1.3972	0.0538
1148.299	1.3966	0.0539
1148.964	1.396	0.054
1149.63	1.3954	0.0542
1150.295	1.3948	0.0543
1150.96	1.3943	0.0544
1151.626	1.3937	0.0545
1152.291	1.3931	0.0546
1152.956	1.3925	0.0547
1153.622	1.3919	0.0549
1154.287	1.3913	0.055
1154.952	1.3907	0.0551
1155.618	1.3901	0.0552
1156.283	1.3895	0.0553
1156.948	1.3889	0.0554
1157.614	1.3883	0.0556
1158.279	1.3877	0.0557
1158.944	1.3871	0.0558
1159.61	1.3865	0.0559
1160.275	1.386	0.056
1160.94	1.3854	0.0562
1161.606	1.3848	0.0563
1162.271	1.3842	0.0564
1162.936	1.3836	0.0565
1163.602	1.383	0.0566
1164.267	1.3824	0.0568
1164.932	1.3818	0.0569
1165.598	1.3812	0.057
1166.263	1.3806	0.0571
1166.928	1.38	0.0572
1167.594	1.3794	0.0574
1168.259	1.3788	0.0575
1168.924	1.3781	0.0576
1169.59	1.3775	0.0577
1170.255	1.3769	0.0579
1170.92	1.3763	0.058
1171.586	1.3757	0.0581
1172.251	1.3751	0.0582
1172.916	1.3745	0.0584
1173.582	1.3739	0.0585
1174.247	1.3733	0.0586
1174.912	1.3727	0.0587
1175.578	1.3721	0.0589
1176.243	1.3715	0.059
1176.908	1.3709	0.0591
1177.574	1.3703	0.0592
1178.239	1.3696	0.0594
1178.904	1.369	0.0595
1179.57	1.3684	0.0596
1180.235	1.3678	0.0597
1180.9	1.3672	0.0599
1181.566	1.3666	0.06
1182.231	1.366	0.0601
1182.896	1.3654	0.0603
1183.562	1.3647	0.0604
1184.227	1.3641	0.0605
1184.892	1.3635	0.0606
1185.558	1.3629	0.0608
1186.223	1.3623	0.0609
1186.888	1.3617	0.061
1187.554	1.361	0.0612
1188.219	1.3604	0.0613
1188.884	1.3598	0.0614
1189.55	1.3592	0.0615
1190.215	1.3586	0.0617
1190.88	1.3579	0.0618
1191.546	1.3573	0.0619
1192.211	1.3567	0.0621
1192.876	1.3561	0.0622
1193.542	1.3554	0.0623
1194.207	1.3548	0.0625
1194.872	1.3542	0.0626
1195.538	1.3536	0.0627
1196.203	1.3529	0.0629
1196.868	1.3523	0.063
1197.534	1.3517	0.0631
1198.199	1.3511	0.0633
1198.864	1.3504	0.0634
1199.53	1.3498	0.0635
1200.195	1.3492	0.0637
1200.86	1.3486	0.0638
1201.526	1.3479	0.0639
1202.191	1.3473	0.0641
1202.856	1.3467	0.0642
1203.522	1.346	0.0643
1204.187	1.3454	0.0645
1204.852	1.3448	0.0646
1205.518	1.3441	0.0648
1206.183	1.3435	0.0649
1206.848	1.3429	0.065
1207.514	1.3422	0.0652
1208.179	1.3416	0.0653
1208.844	1.341	0.0654
1209.51	1.3403	0.0656
1210.175	1.3397	0.0657
1210.84	1.339	0.0659
1211.506	1.3384	0.066
1212.171	1.3378	0.0661
1212.836	1.3371	0.0663
1213.502	1.3365	0.0664
1214.167	1.3358	0.0666
1214.832	1.3352	0.0667
1215.498	1.3346	0.0668
1216.163	1.3339	0.067
1216.828	1.3333	0.0671
1217.494	1.3326	0.0673
1218.159	1.332	0.0674
1218.824	1.3313	0.0675
1219.49	1.3307	0.0677
1220.155	1.33	0.0678
1220.82	1.3294	0.068
1221.486	1.3288	0.0681
1222.151	1.3281	0.0683
1222.816	1.3275	0.0684
1223.482	1.3268	0.0685
1224.147	1.3262	0.0687
1224.812	1.3255	0.0688
1225.478	1.3249	0.069
1226.143	1.3242	0.0691
1226.808	1.3236	0.0693
1227.474	1.3229	0.0694
1228.139	1.3222	0.0696
1228.804	1.3216	0.0697
1229.47	1.3209	0.0699
1230.135	1.3203	0.07
1230.8	1.3196	0.0702
1231.466	1.319	0.0703
1232.131	1.3183	0.0704
1232.796	1.3177	0.0706
1233.462	1.317	0.0707
1234.127	1.3163	0.0709
1234.792	1.3157	0.071
1235.458	1.315	0.0712
1236.123	1.3144	0.0713
1236.788	1.3137	0.0715
1237.454	1.313	0.0716
1238.119	1.3124	0.0718
1238.784	1.3117	0.0719
1239.45	1.311	0.0721
1240.115	1.3104	0.0722
1240.78	1.3097	0.0724
1241.446	1.3091	0.0726
1242.111	1.3084	0.0727
1242.776	1.3077	0.0729
1243.442	1.3071	0.073
1244.107	1.3064	0.0732
1244.772	1.3057	0.0733
1245.438	1.305	0.0735
1246.103	1.3044	0.0736
1246.768	1.3037	0.0738
1247.434	1.303	0.0739
1248.099	1.3024	0.0741
1248.764	1.3017	0.0742
1249.43	1.301	0.0744
1250.095	1.3003	0.0746
1250.76	1.2997	0.0747
1251.426	1.299	0.0749
1252.091	1.2983	0.075
1252.756	1.2976	0.0752
1253.422	1.297	0.0753
1254.087	1.2963	0.0755
1254.752	1.2956	0.0757
1255.418	1.2949	0.0758
1256.083	1.2943	0.076
1256.748	1.2936	0.0761
1257.414	1.2929	0.0763
1258.079	1.2922	0.0765
1258.744	1.2915	0.0766
1259.41	1.2909	0.0768
1260.075	1.2902	0.0769
1260.74	1.2895	0.0771
1261.406	1.2888	0.0773
1262.071	1.2881	0.0774
1262.736	1.2874	0.0776
1263.402	1.2867	0.0778
1264.067	1.2861	0.0779
1264.732	1.2854	0.0781
1265.398	1.2847	0.0783
1266.063	1.284	0.0784
1266.728	1.2833	0.0786
1267.394	1.2826	0.0787
1268.059	1.2819	0.0789
1268.724	1.2812	0.0791
1269.39	1.2805	0.0792
1270.055	1.2799	0.0794
1270.72	1.2792	0.0796
1271.386	1.2785	0.0797
1272.051	1.2778	0.0799
1272.716	1.2771	0.0801
1273.382	1.2764	0.0802
1274.047	1.2757	0.0804
1274.712	1.275	0.0806
1275.378	1.2743	0.0808
1276.043	1.2736	0.0809
1276.708	1.2729	0.0811
1277.374	1.2722	0.0813
1278.039	1.2715	0.0814
1278.704	1.2708	0.0816
1279.37	1.2701	0.0818
1280.035	1.2694	0.0819
1280.7	1.2687	0.0821
1281.366	1.268	0.0823
1282.031	1.2673	0.0825
1282.696	1.2666	0.0826
1283.362	1.2659	0.0828
1284.027	1.2652	0.083
1284.692	1.2645	0.0832
1285.358	1.2637	0.0833
1286.023	1.263	0.0835
1286.688	1.2623	0.0837
1287.354	1.2616	0.0839
1288.019	1.2609	0.084
1288.684	1.2602	0.0842
1289.35	1.2595	0.0844
1290.015	1.2588	0.0846
1290.68	1.2581	0.0847
1291.346	1.2574	0.0849
1292.011	1.2566	0.0851
1292.676	1.2559	0.0853
1293.342	1.2552	0.0855
1294.007	1.2545	0.0856
1294.672	1.2538	0.0858
1295.338	1.2531	0.086
1296.003	1.2523	0.0862
1296.668	1.2516	0.0864
1297.334	1.2509	0.0865
1297.999	1.2502	0.0867
1298.664	1.2495	0.0869
1299.33	1.2487	0.0871
1299.995	1.248	0.0873
1300.66	1.2473	0.0875
1301.326	1.2466	0.0876
1301.991	1.2458	0.0878
1302.656	1.2451	0.088
1303.322	1.2444	0.0882
1303.987	1.2437	0.0884
1304.652	1.2429	0.0886
1305.318	1.2422	0.0888
1305.983	1.2415	0.0889
1306.648	1.2408	0.0891
1307.314	1.24	0.0893
1307.979	1.2393	0.0895
1308.644	1.2386	0.0897
1309.31	1.2378	0.0899
1309.975	1.2371	0.0901
1310.64	1.2364	0.0903
1311.306	1.2356	0.0904
1311.971	1.2349	0.0906
1312.636	1.2342	0.0908
1313.302	1.2334	0.091
1313.967	1.2327	0.0912
1314.632	1.2319	0.0914
1315.298	1.2312	0.0916
1315.963	1.2305	0.0918
1316.628	1.2297	0.092
1317.294	1.229	0.0922
1317.959	1.2282	0.0924
1318.624	1.2275	0.0926
1319.29	1.2268	0.0928
1319.955	1.226	0.093
1320.62	1.2253	0.0931
1321.286	1.2245	0.0933
1321.951	1.2238	0.0935
1322.616	1.223	0.0937
1323.282	1.2223	0.0939
1323.947	1.2215	0.0941
1324.612	1.2208	0.0943
1325.278	1.22	0.0945
1325.943	1.2193	0.0947
1326.608	1.2185	0.0949
1327.274	1.2178	0.0951
1327.939	1.217	0.0953
1328.604	1.2163	0.0955
1329.27	1.2155	0.0957
1329.935	1.2148	0.0959
1330.6	1.214	0.0961
1331.266	1.2133	0.0963
1331.931	1.2125	0.0965
1332.596	1.2118	0.0967
1333.262	1.211	0.0969
1333.927	1.2102	0.0972
1334.592	1.2095	0.0974
1335.258	1.2087	0.0976
1335.923	1.208	0.0978
1336.588	1.2072	0.098
1337.254	1.2064	0.0982
1337.919	1.2057	0.0984
1338.584	1.2049	0.0986
1339.25	1.2041	0.0988
1339.915	1.2034	0.099
1340.58	1.2026	0.0992
1341.246	1.2018	0.0994
1341.911	1.2011	0.0996
1342.576	1.2003	0.0999
1343.242	1.1995	0.1001
1343.907	1.1988	0.1003
1344.572	1.198	0.1005
1345.238	1.1972	0.1007
1345.903	1.1965	0.1009
1346.568	1.1957	0.1011
1347.234	1.1949	0.1013
1347.899	1.1941	0.1016
1348.564	1.1934	0.1018
1349.23	1.1926	0.102
1349.895	1.1918	0.1022
1350.56	1.191	0.1024
1351.226	1.1902	0.1026
1351.891	1.1895	0.1029
1352.556	1.1887	0.1031
1353.222	1.1879	0.1033
1353.887	1.1871	0.1035
1354.552	1.1863	0.1037
1355.218	1.1856	0.1039
1355.883	1.1848	0.1042
1356.548	1.184	0.1044
1357.214	1.1832	0.1046
1357.879	1.1824	0.1048
1358.544	1.1816	0.1051
1359.21	1.1808	0.1053
1359.875	1.1801	0.1055
1360.54	1.1793	0.1057
1361.206	1.1785	0.106
1361.871	1.1777	0.1062
1362.536	1.1769	0.1064
1363.202	1.1761	0.1066
1363.867	1.1753	0.1069
1364.532	1.1745	0.1071
1365.198	1.1737	0.1073
1365.863	1.1729	0.1075
1366.528	1.1721	0.1078
1367.194	1.1713	0.108
1367.859	1.1705	0.1082
1368.524	1.1697	0.1085
1369.19	1.1689	0.1087
1369.855	1.1681	0.1089
1370.52	1.1673	0.1091
1371.186	1.1665	0.1094
1371.851	1.1657	0.1096
1372.516	1.1649	0.1098
1373.182	1.1641	0.1101
1373.847	1.1633	0.1103
1374.512	1.1625	0.1106
1375.178	1.1617	0.1108
1375.843	1.1609	0.111
1376.508	1.1601	0.1113
1377.174	1.1593	0.1115
1377.839	1.1585	0.1117
1378.504	1.1577	0.112
1379.17	1.1568	0.1122
1379.835	1.156	0.1125
1380.5	1.1552	0.1127
1381.166	1.1544	0.1129
1381.831	1.1536	0.1132
1382.496	1.1528	0.1134
1383.162	1.152	0.1137
1383.827	1.1511	0.1139
1384.492	1.1503	0.1141
1385.158	1.1495	0.1144
1385.823	1.1487	0.1146
1386.488	1.1479	0.1149
1387.154	1.147	0.1151
1387.819	1.1462	0.1154
1388.484	1.1454	0.1156
1389.15	1.1446	0.1159
1389.815	1.1437	0.1161
1390.48	1.1429	0.1164
1391.146	1.1421	0.1166
1391.811	1.1413	0.1169
1392.476	1.1404	0.1171
1393.142	1.1396	0.1174
1393.807	1.1388	0.1176
1394.472	1.1379	0.1179
1395.138	1.1371	0.1181
1395.803	1.1363	0.1184
1396.468	1.1355	0.1186
1397.134	1.1346	0.1189
1397.799	1.1338	0.1191
1398.464	1.1329	0.1194
1399.13	1.1321	0.1197
1399.795	1.1313	0.1199
1400.46	1.1304	0.1202
1401.126	1.1296	0.1204
1401.791	1.1288	0.1207
1402.456	1.1279	0.121
1403.122	1.1271	0.1212
1403.787	1.1262	0.1215
1404.452	1.1254	0.1217
1405.118	1.1245	0.122
1405.783	1.1237	0.1223
1406.448	1.1228	0.1225
1407.114	1.122	0.1228
1407.779	1.1212	0.1231
1408.444	1.1203	0.1233
1409.11	1.1195	0.1236
1409.775	1.1186	0.1239
1410.44	1.1178	0.1241
1411.106	1.1169	0.1244
1411.771	1.116	0.1247
1412.436	1.1152	0.1249
1413.102	1.1143	0.1252
1413.767	1.1135	0.1255
1414.432	1.1126	0.1257
1415.098	1.1118	0.126
1415.763	1.1109	0.1263
1416.428	1.1101	0.1266
1417.094	1.1092	0.1268
1417.759	1.1083	0.1271
1418.424	1.1075	0.1274
1419.09	1.1066	0.1277
1419.755	1.1057	0.1279
1420.42	1.1049	0.1282
1421.086	1.104	0.1285
1421.751	1.1031	0.1288
1422.416	1.1023	0.1291
1423.082	1.1014	0.1293
1423.747	1.1005	0.1296
1424.412	1.0997	0.1299
1425.078	1.0988	0.1302
1425.743	1.0979	0.1305
1426.408	1.0971	0.1308
1427.074	1.0962	0.131
1427.739	1.0953	0.1313
1428.404	1.0944	0.1316
1429.07	1.0936	0.1319
1429.735	1.0927	0.1322
1430.4	1.0918	0.1325
1431.066	1.0909	0.1328
1431.731	1.09	0.1331
1432.396	1.0892	0.1334
1433.062	1.0883	0.1336
1433.727	1.0874	0.1339
1434.392	1.0865	0.1342
1435.058	1.0856	0.1345
1435.723	1.0847	0.1348
1436.388	1.0839	0.1351
1437.054	1.083	0.1354
1437.719	1.0821	0.1357
1438.384	1.0812	0.136
1439.05	1.0803	0.1363
1439.715	1.0794	0.1366
1440.38	1.0785	0.1369
1441.046	1.0776	0.1372
1441.711	1.0767	0.1375
1442.376	1.0758	0.1378
1443.042	1.0749	0.1381
1443.707	1.074	0.1384
1444.372	1.0731	0.1387
1445.038	1.0722	0.139
1445.703	1.0713	0.1393
1446.368	1.0704	0.1396
1447.034	1.0695	0.14
1447.699	1.0686	0.1403
1448.364	1.0677	0.1406
1449.03	1.0668	0.1409
1449.695	1.0659	0.1412
1450.36	1.065	0.1415
1451.026	1.0641	0.1418
1451.691	1.0632	0.1421
1452.356	1.0623	0.1424
1453.022	1.0614	0.1428
1453.687	1.0605	0.1431
1454.352	1.0596	0.1434
1455.018	1.0587	0.1437
1455.683	1.0577	0.144
1456.348	1.0568	0.1444
1457.014	1.0559	0.1447
1457.679	1.055	0.145
1458.344	1.0541	0.1453
1459.01	1.0532	0.1456
1459.675	1.0522	0.146
1460.34	1.0513	0.1463
1461.006	1.0504	0.1466
1461.671	1.0495	0.1469
1462.336	1.0485	0.1473
1463.002	1.0476	0.1476
1463.667	1.0467	0.1479
1464.332	1.0458	0.1483
1464.997	1.0448	0.1486
1465.663	1.0439	0.1489
1466.328	1.043	0.1493
1466.993	1.0421	0.1496
1467.659	1.0411	0.1499
1468.324	1.0402	0.1503
1468.989	1.0393	0.1506
1469.655	1.0383	0.1509
1470.32	1.0374	0.1513
1470.985	1.0365	0.1516
1471.651	1.0355	0.152
1472.316	1.0346	0.1523
1472.981	1.0336	0.1526
1473.647	1.0327	0.153
1474.312	1.0318	0.1533
1474.977	1.0308	0.1537
1475.643	1.0299	0.154
1476.308	1.0289	0.1544
1476.973	1.028	0.1547
1477.639	1.027	0.1551
1478.304	1.0261	0.1554
1478.969	1.0251	0.1558
1479.635	1.0242	0.1561
1480.3	1.0232	0.1565
1480.965	1.0223	0.1568
1481.631	1.0213	0.1572
1482.296	1.0204	0.1575
1482.961	1.0194	0.1579
1483.627	1.0185	0.1583
1484.292	1.0175	0.1586
1484.957	1.0166	0.159
1485.623	1.0156	0.1593
1486.288	1.0146	0.1597
1486.953	1.0137	0.1601
1487.619	1.0127	0.1604
1488.284	1.0118	0.1608
1488.949	1.0108	0.1612
1489.615	1.0098	0.1615
1490.28	1.0089	0.1619
1490.945	1.0079	0.1623
1491.611	1.0069	0.1626
1492.276	1.006	0.163
1492.941	1.005	0.1634
1493.607	1.004	0.1638
1494.272	1.003	0.1641
1494.937	1.0021	0.1645
1495.603	1.0011	0.1649
1496.268	1.0001	0.1653
1496.933	0.9991	0.1656
1497.599	0.9982	0.166
1498.264	0.9972	0.1664
1498.929	0.9962	0.1668
1499.595	0.9952	0.1672
1500.26	0.9943	0.1676
1500.925	0.9933	0.1679
1501.591	0.9923	0.1683
1502.256	0.9913	0.1687
1502.921	0.9903	0.1691
1503.587	0.9893	0.1695
1504.252	0.9883	0.1699
1504.917	0.9874	0.1703
1505.583	0.9864	0.1707
1506.248	0.9854	0.1711
1506.913	0.9844	0.1715
1507.579	0.9834	0.1719
1508.244	0.9824	0.1723
1508.909	0.9814	0.1727
1509.575	0.9804	0.1731
1510.24	0.9794	0.1735
1510.905	0.9784	0.1739
1511.571	0.9774	0.1743
1512.236	0.9764	0.1747
1512.901	0.9754	0.1751
1513.567	0.9744	0.1755
1514.232	0.9734	0.1759
1514.897	0.9724	0.1763
1515.563	0.9714	0.1767
1516.228	0.9704	0.1771
1516.893	0.9694	0.1776
1517.559	0.9684	0.178
1518.224	0.9674	0.1784
1518.889	0.9663	0.1788
1519.555	0.9653	0.1792
1520.22	0.9643	0.1796
1520.885	0.9633	0.1801
1521.551	0.9623	0.1805
1522.216	0.9613	0.1809
1522.881	0.9603	0.1813
1523.547	0.9592	0.1818
1524.212	0.9582	0.1822
1524.877	0.9572	0.1826
1525.543	0.9562	0.1831
1526.208	0.9552	0.1835
1526.873	0.9541	0.1839
1527.539	0.9531	0.1844
1528.204	0.9521	0.1848
1528.869	0.9511	0.1852
1529.535	0.95	0.1857
1530.2	0.949	0.1861
1530.865	0.948	0.1866
1531.531	0.9469	0.187
1532.196	0.9459	0.1875
1532.861	0.9449	0.1879
1533.527	0.9438	0.1883
1534.192	0.9428	0.1888
1534.857	0.9418	0.1892
1535.523	0.9407	0.1897
1536.188	0.9397	0.1902
1536.853	0.9386	0.1906
1537.519	0.9376	0.1911
1538.184	0.9366	0.1915
1538.849	0.9355	0.192
1539.515	0.9345	0.1924
1540.18	0.9334	0.1929
1540.845	0.9324	0.1934
1541.511	0.9313	0.1938
1542.176	0.9303	0.1943
1542.841	0.9292	0.1948
1543.507	0.9282	0.1952
1544.172	0.9271	0.1957
1544.837	0.9261	0.1962
1545.503	0.925	0.1967
1546.168	0.924	0.1971
1546.833	0.9229	0.1976
1547.499	0.9218	0.1981
1548.164	0.9208	0.1986
1548.829	0.9197	0.199
1549.495	0.9187	0.1995
1550.16	0.9176	0.2
1550.825	0.9165	0.2005
1551.491	0.9155	0.201
1552.156	0.9144	0.2015
1552.821	0.9133	0.202
1553.487	0.9123	0.2025
1554.152	0.9112	0.203
1554.817	0.9101	0.2035
1555.483	0.9091	0.204
1556.148	0.908	0.2045
1556.813	0.9069	0.205
1557.479	0.9058	0.2055
1558.144	0.9048	0.206
1558.809	0.9037	0.2065
1559.475	0.9026	0.207
1560.14	0.9015	0.2075
1560.805	0.9004	0.208
1561.471	0.8994	0.2085
1562.136	0.8983	0.209
1562.801	0.8972	0.2095
1563.467	0.8961	0.2101
1564.132	0.895	0.2106
1564.797	0.8939	0.2111
1565.463	0.8928	0.2116
1566.128	0.8917	0.2121
1566.793	0.8907	0.2127
1567.459	0.8896	0.2132
1568.124	0.8885	0.2137
1568.789	0.8874	0.2143
1569.455	0.8863	0.2148
1570.12	0.8852	0.2153
1570.785	0.8841	0.2159
1571.451	0.883	0.2164
1572.116	0.8819	0.217
1572.781	0.8808	0.2175
1573.447	0.8797	0.2181
1574.112	0.8785	0.2186
1574.777	0.8774	0.2191
1575.443	0.8763	0.2197
1576.108	0.8752	0.2203
1576.773	0.8741	0.2208
1577.439	0.873	0.2214
1578.104	0.8719	0.2219
1578.769	0.8707	0.2225
1579.435	0.8696	0.2231
1580.1	0.8685	0.2236
1580.765	0.8674	0.2242
1581.431	0.8662	0.2248
1582.096	0.8651	0.2253
1582.761	0.864	0.2259
1583.427	0.8628	0.2265
1584.092	0.8617	0.2271
1584.757	0.8606	0.2277
1585.423	0.8594	0.2283
1586.088	0.8583	0.2288
1586.753	0.8571	0.2294
1587.419	0.8559	0.23
1588.084	0.8548	0.2306
1588.749	0.8536	0.2312
1589.415	0.8524	0.2318
1590.08	0.8512	0.2325
1590.745	0.85	0.2331
1591.411	0.8488	0.2337
1592.076	0.8476	0.2343
1592.741	0.8463	0.235
1593.407	0.845	0.2356
1594.072	0.8437	0.2363
1594.737	0.8424	0.2369
1595.403	0.8409	0.2376
1596.068	0.8394	0.2384
1596.733	0.8377	0.2392
1597.399	0.8356	0.2401
1598.064	0.8329	0.2412
1598.729	0.8284	0.243
1599.395	0.8141	0.2493
1600.06	0.8852	0.2363
1600.725	0.8462	0.239
1601.391	0.8399	0.2407
1602.056	0.8367	0.2419
1602.721	0.8344	0.2428
1603.387	0.8326	0.2436
1604.052	0.831	0.2444
1604.717	0.8295	0.2451
1605.383	0.8281	0.2458
1606.048	0.8268	0.2465
1606.713	0.8255	0.2472
1607.379	0.8242	0.2479
1608.044	0.8229	0.2486
1608.709	0.8217	0.2493
1609.375	0.8204	0.2499
1610.04	0.8192	0.2506
1610.705	0.818	0.2513
1611.371	0.8168	0.252
1612.036	0.8156	0.2526
1612.701	0.8144	0.2533
1613.367	0.8132	0.254
1614.032	0.812	0.2547
1614.697	0.8108	0.2554
1615.363	0.8096	0.2561
1616.028	0.8085	0.2567
1616.693	0.8073	0.2574
1617.359	0.8061	0.2581
1618.024	0.8049	0.2588
1618.689	0.8037	0.2595
1619.355	0.8025	0.2602
1620.02	0.8014	0.2609
1620.685	0.8002	0.2616
1621.351	0.799	0.2623
1622.016	0.7978	0.263
1622.681	0.7966	0.2637
1623.347	0.7955	0.2644
1624.012	0.7943	0.2652
1624.677	0.7931	0.2659
1625.343	0.7919	0.2666
1626.008	0.7908	0.2673
1626.673	0.7896	0.268
1627.339	0.7884	0.2688
1628.004	0.7872	0.2695
1628.669	0.786	0.2702
1629.335	0.7849	0.2709
1630	0.7837	0.2717