// thickness-independent fraction of light power (for rudimentary optics) between 0 and 1
simple transmission coefficient:
0

// wavelength-independent absorption coefficient 'a' according to I(z)=I0*exp(-a*z) in [1/m]
lambert beer absorption coefficient:
1e10

// three-column refractive data for TMM calculations with wavelength [nm], n, k (must be tab-separated)
refractive data:
225.96536	1.71842	0.44281
226.96522	1.7206	0.44126
227.96504	1.72276	0.43966
228.96492	1.72488	0.43802
229.96477	1.72696	0.43634
230.96462	1.72899	0.43462
231.96443	1.73097	0.43287
232.96432	1.7329	0.43109
233.96416	1.73478	0.42928
234.96398	1.73658	0.42745
235.96385	1.73832	0.42562
236.96366	1.73999	0.42377
237.96353	1.74159	0.42191
238.9634	1.7431	0.42006
239.96321	1.74453	0.41821
240.96308	1.74588	0.41638
241.96292	1.74714	0.41457
242.9628	1.7483	0.41278
243.96262	1.74936	0.41103
244.96248	1.75033	0.40932
245.96233	1.75119	0.40766
246.96215	1.75195	0.40606
247.962	1.7526	0.40453
248.96183	1.75314	0.40309
249.96169	1.75356	0.40174
250.96154	1.75388	0.40049
251.96138	1.75407	0.39937
252.96122	1.75416	0.39838
253.96107	1.75412	0.39754
254.96093	1.75398	0.39688
255.96077	1.75372	0.39641
256.96061	1.75335	0.39615
257.9605	1.75289	0.39612
258.9603	1.75232	0.39636
259.96015	1.75168	0.39689
260.96	1.75096	0.39774
261.95988	1.75019	0.39894
262.9597	1.74939	0.40053
263.95953	1.74859	0.40256
264.95941	1.74781	0.40504
265.95925	1.74711	0.40804
266.95907	1.74654	0.41158
267.95892	1.74615	0.41573
268.95881	1.74603	0.4205
269.95861	1.74627	0.42594
270.95846	1.74697	0.43209
271.95829	1.74826	0.43894
272.95814	1.7503	0.44652
273.95798	1.75324	0.45479
274.95786	1.75726	0.4637
275.95769	1.76257	0.47316
276.95757	1.76936	0.48301
277.95738	1.77782	0.49308
278.95722	1.78813	0.50308
279.95712	1.80042	0.5127
280.95697	1.81475	0.52155
281.9568	1.83108	0.52921
282.9566	1.84929	0.53522
283.9565	1.86913	0.53918
284.95634	1.8902	0.54069
285.9562	1.91204	0.53948
286.95599	1.9341	0.5354
287.95591	1.95579	0.52846
288.95568	1.97657	0.51879
289.95557	1.99594	0.50669
290.95544	2.01354	0.49253
291.95528	2.02909	0.47676
292.9551	2.04246	0.45984
293.95496	2.05364	0.4422
294.95479	2.0627	0.42423
295.95466	2.06977	0.40627
296.9545	2.07503	0.38859
297.95433	2.0787	0.37138
298.9542	2.08098	0.35479
299.95406	2.08207	0.33891
300.9539	2.08215	0.32378
301.95375	2.08141	0.30943
302.95359	2.07998	0.29585
303.95337	2.07799	0.28302
304.95325	2.07556	0.27091
305.95308	2.07277	0.25949
306.95296	2.0697	0.24871
307.95281	2.06642	0.23853
308.95265	2.06297	0.22891
309.9525	2.0594	0.21981
310.95237	2.05573	0.21118
311.95219	2.05201	0.203
312.95207	2.04825	0.19522
313.95185	2.04446	0.18782
314.95173	2.04067	0.18077
315.95155	2.03688	0.17405
316.95142	2.0331	0.16761
317.95128	2.02934	0.16146
318.95115	2.02559	0.15556
319.95097	2.02188	0.1499
320.95084	2.01819	0.14447
321.95063	2.01452	0.13924
322.95053	2.01089	0.1342
323.95031	2.00729	0.12935
324.95017	2.00372	0.12467
325.95005	2.00018	0.12015
326.94989	1.99667	0.11579
327.94973	1.99319	0.11157
328.94959	1.98974	0.10749
329.94941	1.98631	0.10354
330.94933	1.98292	0.09972
331.94911	1.97954	0.09601
332.94895	1.97619	0.09242
333.94881	1.97287	0.08894
334.94863	1.96957	0.08557
335.94853	1.96629	0.0823
336.94838	1.96304	0.07913
337.94821	1.9598	0.07606
338.94807	1.95659	0.07308
339.94789	1.95339	0.07019
340.94772	1.95021	0.06739
341.9476	1.94706	0.06468
342.94748	1.94392	0.06205
343.94731	1.9408	0.0595
344.94713	1.9377	0.05703
345.94699	1.93461	0.05464
346.94683	1.93154	0.05233
347.94672	1.9285	0.0501
348.94648	1.92546	0.04794
349.94639	1.92245	0.04586
350.94627	1.91945	0.04385
351.94609	1.91648	0.04191
352.9459	1.91352	0.04004
353.94574	1.91058	0.03825
354.94558	1.90766	0.03652
355.94546	1.90475	0.03487
356.94533	1.90187	0.03328
357.94516	1.89901	0.03176
358.94499	1.89617	0.0303
359.94489	1.89335	0.02892
360.94469	1.89056	0.0276
361.94457	1.88779	0.02634
362.94437	1.88504	0.02516
363.94427	1.88232	0.02403
364.9441	1.87963	0.02297
365.94393	1.87696	0.02198
366.94372	1.87433	0.02105
367.94364	1.87172	0.02018
368.94342	1.86915	0.01938
369.94335	1.86661	0.01864
370.94316	1.86412	0.01796
371.94304	1.86166	0.01734
372.94282	1.85924	0.01679
373.9427	1.85687	0.0163
374.9425	1.85454	0.01587
375.94243	1.85228	0.0155
376.9422	1.85008	0.0152
377.94211	1.84796	0.01495
378.94191	1.84593	0.01472
379.94176	1.84398	0.01449
380.94164	1.84208	0.01428
381.9415	1.84024	0.01406
382.9413	1.83844	0.01386
383.94112	1.83669	0.01366
384.94103	1.83498	0.01346
385.94088	1.83331	0.01327
386.94075	1.83168	0.01308
387.94058	1.83008	0.0129
388.94035	1.82851	0.01273
389.94026	1.82698	0.01255
390.94015	1.82548	0.01239
391.93997	1.824	0.01222
392.93982	1.82256	0.01206
393.93964	1.82114	0.0119
394.93941	1.81975	0.01175
395.93934	1.81838	0.0116
396.93913	1.81704	0.01146
397.939	1.81572	0.01131
398.93892	1.81442	0.01117
399.93871	1.81315	0.01104
400.9386	1.81189	0.0109
401.93842	1.81066	0.01077
402.93826	1.80945	0.01065
403.93809	1.80826	0.01052
404.938	1.80708	0.0104
405.93782	1.80593	0.01028
406.93764	1.80479	0.01016
407.93744	1.80367	0.01005
408.93731	1.80257	0.00994
409.93721	1.80148	0.00983
410.93697	1.80041	0.00972
411.93684	1.79936	0.00961
412.93676	1.79832	0.00951
413.93658	1.79729	0.00941
414.93638	1.79628	0.00931
415.93629	1.79529	0.00921
416.93612	1.79431	0.00912
417.93598	1.79334	0.00902
418.93583	1.79238	0.00893
419.93564	1.79144	0.00884
420.93552	1.79051	0.00875
421.93528	1.7896	0.00867
422.9352	1.78869	0.00858
423.93508	1.7878	0.0085
424.93489	1.78692	0.00842
425.93474	1.78605	0.00833
426.93461	1.78519	0.00826
427.93446	1.78434	0.00818
428.93425	1.7835	0.0081
429.9341	1.78268	0.00803
430.93398	1.78186	0.00795
431.93386	1.78105	0.00788
432.9337	1.78026	0.00781
433.93348	1.77947	0.00774
434.9333	1.77869	0.00767
435.93315	1.77793	0.0076
436.93298	1.77717	0.00754
437.93292	1.77642	0.00747
438.93279	1.77567	0.00741
439.93255	1.77494	0.00734
440.93249	1.77422	0.00728
441.93225	1.7735	0.00722
442.93213	1.77279	0.00716
443.93193	1.77209	0.0071
444.93179	1.7714	0.00704
445.93167	1.77072	0.00699
446.93154	1.77004	0.00693
447.93138	1.76937	0.00687
448.93114	1.76871	0.00682
449.93098	1.76805	0.00677
450.93084	1.76741	0.00671
451.93071	1.76676	0.00666
452.93056	1.76613	0.00661
453.93052	1.7655	0.00656
454.93024	1.76488	0.00651
455.93017	1.76427	0.00646
456.92996	1.76366	0.00641
457.92975	1.76306	0.00636
458.92968	1.76246	0.00632
459.92955	1.76187	0.00627
460.92932	1.76129	0.00622
461.92916	1.76071	0.00618
462.92901	1.76014	0.00613
463.92887	1.75957	0.00609
464.92869	1.75901	0.00605
465.92863	1.75846	0.006
466.92849	1.75791	0.00596
467.92823	1.75736	0.00592
468.92818	1.75683	0.00588
469.92796	1.75629	0.00584
470.9279	1.75576	0.0058
471.92761	1.75524	0.00576
472.92761	1.75472	0.00572
473.92733	1.75421	0.00568
474.92728	1.7537	0.00565
475.92707	1.75319	0.00561
476.92686	1.75269	0.00557
477.92681	1.7522	0.00554
478.92651	1.75171	0.0055
479.92651	1.75122	0.00547
480.92622	1.75074	0.00543
481.92617	1.75026	0.0054
482.92595	1.74979	0.00536
483.92574	1.74932	0.00533
484.92569	1.74885	0.0053
485.92559	1.74839	0.00526
486.92542	1.74794	0.00523
487.92515	1.74748	0.0052
488.92513	1.74703	0.00517
489.92497	1.74659	0.00514
490.92481	1.74615	0.00511
491.92465	1.74571	0.00507
492.92446	1.74528	0.00505
493.9244	1.74485	0.00502
494.92425	1.74442	0.00499
495.924	1.744	0.00496
496.92381	1.74358	0.00493
497.92366	1.74316	0.0049
498.92353	1.74275	0.00487
499.92339	1.74234	0.00484
500.92321	1.74194	0.00482
501.92319	1.74153	0.00479
502.92288	1.74113	0.00476
503.92287	1.74074	0.00474
504.92253	1.74035	0.00471
505.92244	1.73995	0.00468
506.92239	1.73957	0.00466
507.92214	1.73919	0.00463
508.92207	1.7388	0.00461
509.92176	1.73843	0.00458
510.92159	1.73805	0.00456
511.92155	1.73768	0.00454
512.92139	1.73731	0.00451
513.92132	1.73695	0.00449
514.92109	1.73658	0.00447
515.92089	1.73622	0.00444
516.9207	1.73587	0.00442
517.92071	1.73551	0.0044
518.92048	1.73516	0.00437
519.92041	1.73481	0.00435
520.92025	1.73446	0.00433
521.92	1.73412	0.00431
522.91984	1.73378	0.00429
523.91976	1.73344	0.00426
524.9195	1.7331	0.00424
525.9195	1.73277	0.00422
526.91929	1.73243	0.0042
527.91906	1.7321	0.00418
528.91903	1.73178	0.00416
529.91871	1.73145	0.00414
530.91854	1.73113	0.00412
531.9185	1.73081	0.0041
532.91834	1.73049	0.00408
533.91826	1.73017	0.00406
534.91803	1.72986	0.00404
535.91783	1.72955	0.00402
536.91766	1.72924	0.00401
537.9175	1.72893	0.00399
538.91731	1.72863	0.00397
539.91733	1.72832	0.00395
540.91705	1.72802	0.00393
541.91692	1.72772	0.00392
542.9167	1.72743	0.0039
543.91659	1.72713	0.00388
544.91658	1.72684	0.00386
545.9164	1.72655	0.00384
546.91629	1.72626	0.00383
547.91597	1.72597	0.00381
548.9159	1.72569	0.0038
549.91584	1.7254	0.00378
550.9155	1.72512	0.00376
551.91537	1.72484	0.00375
552.91518	1.72456	0.00373
553.91515	1.72429	0.00371
554.91502	1.72401	0.0037
555.91476	1.72374	0.00368
556.91462	1.72347	0.00367
557.91456	1.7232	0.00365
558.91431	1.72293	0.00364
559.91412	1.72267	0.00362
560.91396	1.7224	0.00361
561.91381	1.72214	0.00359
562.91365	1.72188	0.00358
563.91372	1.72162	0.00356
564.9135	1.72136	0.00355
565.9132	1.72111	0.00353
566.91308	1.72085	0.00352
567.91286	1.7206	0.0035
568.91278	1.72035	0.00349
569.91256	1.7201	0.00348
570.91243	1.71985	0.00346
571.9124	1.7196	0.00345
572.91217	1.71936	0.00344
573.91198	1.71911	0.00342
574.91183	1.71887	0.00341
575.91168	1.71863	0.00339
576.91153	1.71839	0.00338
577.91136	1.71815	0.00337
578.91141	1.71792	0.00335
579.91114	1.71768	0.00334
580.91105	1.71745	0.00333
581.91088	1.71721	0.00332
582.91058	1.71698	0.00331
583.91043	1.71675	0.00329
584.9104	1.71652	0.00328
585.9102	1.71629	0.00327
586.91009	1.71607	0.00326
587.90977	1.71584	0.00324
588.90979	1.71562	0.00323
589.90957	1.7154	0.00322
590.90937	1.71518	0.00321
591.90946	1.71496	0.0032
592.90925	1.71474	0.00318
593.90901	1.71452	0.00317
594.90872	1.7143	0.00316
595.90865	1.71409	0.00315
596.9085	1.71387	0.00314
597.90825	1.71366	0.00313
598.90818	1.71345	0.00312
599.90797	1.71324	0.00311
600.9079	1.71303	0.0031
601.90766	1.71282	0.00309
602.90753	1.71261	0.00307
603.90749	1.71241	0.00306
604.90723	1.7122	0.00305
605.90703	1.71199	0.00304
606.90688	1.71179	0.00303
607.90674	1.71159	0.00302
608.90662	1.71139	0.00301
609.9065	1.71119	0.003
610.90635	1.71099	0.00299
611.90616	1.71079	0.00298
612.90592	1.7106	0.00297
613.90591	1.7104	0.00296
614.90582	1.7102	0.00295
615.90562	1.71001	0.00294
616.9056	1.70982	0.00293
617.90515	1.70962	0.00292
618.90516	1.70943	0.00291
619.905	1.70924	0.0029
620.90497	1.70905	0.00289
621.90473	1.70887	0.00288
622.9046	1.70868	0.00288
623.90423	1.70849	0.00287
624.90423	1.70831	0.00286
625.90398	1.70812	0.00285
626.90375	1.70794	0.00284
627.90387	1.70775	0.00283
628.90367	1.70757	0.00282
629.90346	1.70739	0.00281
630.90322	1.70721	0.0028
631.90326	1.70703	0.00279
632.90293	1.70685	0.00279
633.90284	1.70667	0.00278
634.90267	1.7065	0.00277
635.9024	1.70632	0.00276
636.90233	1.70614	0.00275
637.90213	1.70597	0.00274
638.90212	1.7058	0.00273
639.90194	1.70562	0.00273
640.90191	1.70545	0.00272
641.90169	1.70528	0.00271
642.90159	1.70511	0.0027
643.90127	1.70494	0.00269
644.90104	1.70477	0.00268
645.9009	1.7046	0.00268
646.90082	1.70443	0.00267
647.90079	1.70426	0.00266
648.90047	1.7041	0.00265
649.90051	1.70393	0.00265
650.90022	1.70377	0.00264
651.90027	1.7036	0.00263
652.89995	1.70344	0.00262
653.89995	1.70328	0.00262
654.89956	1.70311	0.00261
655.89945	1.70295	0.0026
656.89927	1.70279	0.00259
657.89935	1.70263	0.00259
658.89897	1.70247	0.00258
659.89883	1.70232	0.00257
660.89855	1.70216	0.00256
661.89849	1.702	0.00256
662.89826	1.70184	0.00255
663.89822	1.70169	0.00254
664.89798	1.70153	0.00253
665.8979	1.70138	0.00253
666.89797	1.70122	0.00252
667.8978	1.70107	0.00251
668.89739	1.70092	0.00251
669.89744	1.70076	0.0025
670.89721	1.70061	0.00249
671.89707	1.70046	0.00249
672.89698	1.70031	0.00248
673.89658	1.70016	0.00247
674.89659	1.70001	0.00247
675.89661	1.69986	0.00246
676.89628	1.69972	0.00245
677.89595	1.69957	0.00245
678.89597	1.69942	0.00244
679.89596	1.69927	0.00243
680.89554	1.69913	0.00243
681.89543	1.69898	0.00242
682.89526	1.69884	0.00241
683.89538	1.69869	0.00241
684.89503	1.69855	0.0024
685.89495	1.69841	0.0024
686.89475	1.69826	0.00239
687.89442	1.69812	0.00238
688.89432	1.69798	0.00238
689.89445	1.69784	0.00237
690.89401	1.6977	0.00236
691.89378	1.69756	0.00236
692.89373	1.69742	0.00235
693.89347	1.69728	0.00235
694.89338	1.69714	0.00234
695.89343	1.69701	0.00233
696.89323	1.69687	0.00233
697.89317	1.69673	0.00232
698.89282	1.69659	0.00232
699.89257	1.69646	0.00231
700.89242	1.69632	0.00231
701.89234	1.69619	0.0023
702.89233	1.69605	0.00229
703.89198	1.69592	0.00229
704.89208	1.69579	0.00228
705.8918	1.69565	0.00228
706.89154	1.69552	0.00227
707.89169	1.69539	0.00227
708.89143	1.69526	0.00226
709.89116	1.69513	0.00226
710.89126	1.69499	0.00225
711.89092	1.69486	0.00224
712.89093	1.69473	0.00224
713.89046	1.6946	0.00223
714.89033	1.69448	0.00223
715.89011	1.69435	0.00222
716.89021	1.69422	0.00222
717.88978	1.69409	0.00221
718.89005	1.69396	0.00221
719.88977	1.69384	0.0022
720.88934	1.69371	0.0022
721.88917	1.69358	0.00219
722.88925	1.69346	0.00219
723.88914	1.69333	0.00218
724.88884	1.69321	0.00218
725.88875	1.69308	0.00217
726.88844	1.69296	0.00217
727.88832	1.69283	0.00216
728.88839	1.69271	0.00216
729.8882	1.69259	0.00215
730.88818	1.69247	0.00215
731.88787	1.69234	0.00214
732.8877	1.69222	0.00214
733.88766	1.6921	0.00213
734.8873	1.69198	0.00213
735.88705	1.69186	0.00212
736.8869	1.69174	0.00212
737.88683	1.69162	0.00211
738.88684	1.6915	0.00211
739.88647	1.69138	0.0021
740.88659	1.69126	0.0021
741.88632	1.69114	0.00209
742.88608	1.69102	0.00209
743.88585	1.6909	0.00208
744.88564	1.69079	0.00208
745.88587	1.69067	0.00208
746.88564	1.69055	0.00207
747.88539	1.69044	0.00207
748.88511	1.69032	0.00206
749.88523	1.6902	0.00206
750.88485	1.69009	0.00205
751.88485	1.68997	0.00205
752.88478	1.68986	0.00204
753.88462	1.68974	0.00204
754.88436	1.68963	0.00203
755.884	1.68952	0.00203
756.88397	1.6894	0.00203
757.88381	1.68929	0.00202
758.88351	1.68918	0.00202
759.88352	1.68906	0.00201
760.88337	1.68895	0.00201
761.88305	1.68884	0.002
762.88301	1.68873	0.002
763.88277	1.68862	0.002
764.8828	1.6885	0.00199
765.88261	1.68839	0.00199
766.88266	1.68828	0.00198
767.88248	1.68817	0.00198
768.88205	1.68806	0.00198
769.88183	1.68795	0.00197
770.88182	1.68784	0.00197
771.88153	1.68774	0.00196
772.88142	1.68763	0.00196
773.88149	1.68752	0.00196
774.88125	1.68741	0.00195
775.88117	1.6873	0.00195
776.88075	1.68719	0.00194
777.88095	1.68709	0.00194
778.8808	1.68698	0.00194
779.88028	1.68687	0.00193
780.88036	1.68677	0.00193
781.88005	1.68666	0.00192
782.87984	1.68655	0.00192
783.8797	1.68645	0.00192
784.87964	1.68634	0.00191
785.87964	1.68624	0.00191
786.87919	1.68613	0.0019
787.87929	1.68603	0.0019
788.87892	1.68592	0.0019
789.87908	1.68582	0.00189
790.87875	1.68571	0.00189
791.87843	1.68561	0.00189
792.8786	1.68551	0.00188
793.87826	1.6854	0.00188
794.8784	1.6853	0.00187
795.878	1.6852	0.00187
796.87807	1.68509	0.00187
797.87758	1.68499	0.00186
798.87753	1.68489	0.00186
799.87742	1.68479	0.00186
800.87722	1.68469	0.00185
801.87694	1.68459	0.00185
802.87707	1.68448	0.00185
803.87658	1.68438	0.00184
804.87648	1.68428	0.00184
805.87626	1.68418	0.00184
806.87642	1.68408	0.00183
807.87644	1.68398	0.00183
808.8763	1.68388	0.00183
809.87599	1.68378	0.00182
810.87551	1.68368	0.00182
811.87537	1.68358	0.00181
812.87556	1.68348	0.00181
813.87502	1.68338	0.00181
814.87533	1.68329	0.0018
815.87488	1.68319	0.0018
816.87474	1.68309	0.0018
817.87489	1.68299	0.00179
818.87425	1.68289	0.00179
819.87442	1.6828	0.00179
820.87433	1.6827	0.00178
821.87395	1.6826	0.00178
822.87382	1.6825	0.00178
823.87394	1.68241	0.00177
824.87376	1.68231	0.00177
825.87325	1.68222	0.00177
826.87351	1.68212	0.00177
827.87288	1.68202	0.00176
828.873	1.68193	0.00176
829.87277	1.68183	0.00176
830.87272	1.68174	0.00175
831.8723	1.68164	0.00175
832.87261	1.68155	0.00175
833.87196	1.68145	0.00174
834.87202	1.68136	0.00174
835.87167	1.68126	0.00174
836.87202	1.68117	0.00173
837.87137	1.68107	0.00173
838.87141	1.68098	0.00173
839.87156	1.68089	0.00172
840.87125	1.68079	0.00172
841.87103	1.6807	0.00172
842.8709	1.6806	0.00171
843.87086	1.68051	0.00171
844.87031	1.68042	0.00171
845.87039	1.68033	0.00171
846.86996	1.68023	0.0017
847.87015	1.68014	0.0017
848.8698	1.68005	0.0017
849.86948	1.67996	0.00169
850.86977	1.67986	0.00169
851.86949	1.67977	0.00169
852.86921	1.67968	0.00169
853.86893	1.67959	0.00168
854.86923	1.6795	0.00168
855.86892	1.67941	0.00168
856.86858	1.67932	0.00167
857.8688	1.67923	0.00167
858.86838	1.67914	0.00167
859.8685	1.67904	0.00167
860.86797	1.67895	0.00166
861.86797	1.67886	0.00166
862.86789	1.67877	0.00166
863.86772	1.67868	0.00165
864.86747	1.67859	0.00165
865.86711	1.6785	0.00165
866.86724	1.67842	0.00165
867.86726	1.67833	0.00164
868.86715	1.67824	0.00164
869.86691	1.67815	0.00164
870.86653	1.67806	0.00164
871.8666	1.67797	0.00163
872.86652	1.67788	0.00163
873.86627	1.67779	0.00163
874.86584	1.67771	0.00162
875.86584	1.67762	0.00162
876.86566	1.67753	0.00162
877.86527	1.67744	0.00162
878.8653	1.67735	0.00161
879.8651	1.67727	0.00161
880.86531	1.67718	0.00161
881.86466	1.67709	0.00161
882.86439	1.677	0.0016
883.86451	1.67692	0.0016
884.86436	1.67683	0.0016
885.86395	1.67674	0.0016
886.86389	1.67666	0.00159
887.86419	1.67657	0.00159
888.86356	1.67648	0.00159
889.8639	1.6764	0.00159
890.8633	1.67631	0.00158
891.86302	1.67622	0.00158
892.86306	1.67614	0.00158
893.86276	1.67605	0.00158
894.86277	1.67597	0.00157
895.86243	1.67588	0.00157
896.86238	1.67579	0.00157
897.86261	1.67571	0.00157
898.86247	1.67562	0.00156
899.86195	1.67554	0.00156
900.86169	1.67545	0.00156
901.86168	1.67537	0.00156
902.86193	1.67528	0.00155
903.86176	1.6752	0.00155
904.86116	1.67511	0.00155
905.86146	1.67503	0.00155
906.86131	1.67495	0.00154
907.86072	1.67486	0.00154
908.86099	1.67478	0.00154
909.86081	1.67469	0.00154
910.86015	1.67461	0.00153
911.86034	1.67453	0.00153
912.86005	1.67444	0.00153
913.85993	1.67436	0.00153
914.85997	1.67428	0.00153
915.8595	1.67419	0.00152
916.85919	1.67411	0.00152
917.8597	1.67403	0.00152
918.85899	1.67394	0.00152
919.85909	1.67386	0.00151
920.85864	1.67378	0.00151
921.85899	1.67369	0.00151
922.85877	1.67361	0.00151
923.85865	1.67353	0.00151
924.85795	1.67345	0.0015
925.85802	1.67336	0.0015
926.85819	1.67328	0.0015
927.85773	1.6732	0.0015
928.85735	1.67312	0.00149
929.85773	1.67303	0.00149
930.85747	1.67295	0.00149
931.85727	1.67287	0.00149
932.8571	1.67279	0.00149
933.85698	1.67271	0.00148
934.85688	1.67263	0.00148
935.85681	1.67254	0.00148
936.85676	1.67246	0.00148
937.856	1.67238	0.00147
938.85596	1.6723	0.00147
939.85592	1.67222	0.00147
940.85587	1.67214	0.00147
941.8558	1.67206	0.00146
942.85571	1.67198	0.00146
943.85559	1.67189	0.00146
944.85543	1.67181	0.00146
945.85522	1.67173	0.00146
946.85497	1.67165	0.00145
947.85465	1.67157	0.00145
948.85427	1.67149	0.00145
949.85455	1.67141	0.00145
950.85402	1.67133	0.00145
951.85414	1.67125	0.00144
952.85416	1.67117	0.00144
953.85408	1.67109	0.00144
954.8539	1.67101	0.00144
955.85361	1.67093	0.00144
956.8532	1.67085	0.00143
957.8534	1.67077	0.00143
958.85273	1.67069	0.00143
959.85266	1.67061	0.00143
960.85244	1.67053	0.00143
961.85281	1.67045	0.00142
962.85228	1.67037	0.00142
963.85233	1.6703	0.00142
964.85221	1.67022	0.00142
965.8519	1.67014	0.00142
966.85216	1.67006	0.00141
967.85148	1.66998	0.00141
968.85134	1.6699	0.00141
969.85176	1.66982	0.00141
970.85121	1.66974	0.00141
971.85119	1.66967	0.0014
972.85095	1.66959	0.0014
973.85046	1.66951	0.0014
974.85051	1.66943	0.0014
975.8503	1.66935	0.0014
976.85061	1.66927	0.0014
977.84988	1.66919	0.00139
978.84966	1.66912	0.00139
979.84993	1.66904	0.00139
980.84993	1.66896	0.00139
981.84963	1.66888	0.00138
982.84903	1.6688	0.00138
983.84891	1.66873	0.00138
984.84927	1.66865	0.00138
985.84852	1.66857	0.00138
986.84902	1.66849	0.00138
987.8484	1.66842	0.00137
988.84823	1.66834	0.00137
989.84851	1.66826	0.00137
990.84843	1.66818	0.00137
991.848	1.6681	0.00137
992.848	1.66803	0.00136
993.84762	1.66795	0.00136
994.84766	1.66787	0.00136
995.84732	1.6678	0.00136
996.84739	1.66772	0.00136
997.84706	1.66764	0.00136
998.84712	1.66757	0.00135
999.84677	1.66749	0.00135
1005.84616	1.66703	0.00134
1011.8453	1.66657	0.00133
1017.84373	1.66611	0.00132
1023.84267	1.66566	0.00131
1029.84175	1.6652	0.0013
1035.84143	1.66475	0.00129
1041.84051	1.6643	0.00128
1047.83951	1.66385	0.00127
1053.83813	1.6634	0.00126
1059.83787	1.66296	0.00126
1065.83668	1.66251	0.00125
1071.83613	1.66206	0.00124
1077.8351	1.66162	0.00123
1083.83432	1.66118	0.00122
1089.83268	1.66074	0.00121
1095.83193	1.66029	0.0012
1101.83101	1.65985	0.0012
1107.8298	1.65941	0.00119
1113.82923	1.65898	0.00118
1119.82824	1.65854	0.00117
1125.82781	1.6581	0.00116
1131.82692	1.65766	0.00116
1137.82556	1.65722	0.00115
1143.8248	1.65679	0.00114
1149.82365	1.65635	0.00113
1155.82326	1.65591	0.00113
1161.82157	1.65548	0.00112
1167.82085	1.65504	0.00111
1173.82018	1.65461	0.00111
1179.81971	1.65417	0.0011
1185.8185	1.65374	0.00109
1191.81788	1.6533	0.00109
1197.81693	1.65287	0.00108
1203.8159	1.65243	0.00107
1209.81506	1.65199	0.00107
1215.81349	1.65156	0.00106
1221.8127	1.65112	0.00105
1227.81182	1.65069	0.00105
1233.81121	1.65025	0.00104
1239.81	1.64981	0.00104
1245.80857	1.64938	0.00103
1251.80859	1.64894	0.00103
1257.8067	1.6485	0.00102
1263.80588	1.64806	0.00101
1269.80534	1.64762	0.00101
1275.80427	1.64719	0.001
1281.80315	1.64675	9.97E-4
1287.80254	1.64631	9.92E-4
1293.80164	1.64587	9.86E-4
1299.80102	1.64543	9.81E-4
1305.7999	1.64498	9.76E-4
1311.7989	1.64454	9.71E-4
1317.79864	1.6441	9.66E-4
1323.79698	1.64366	9.61E-4
1329.79596	1.64321	9.56E-4
1335.79488	1.64277	9.51E-4
1341.79443	1.64232	9.46E-4
1347.7939	1.64188	9.41E-4
1353.79257	1.64143	9.37E-4
1359.79117	1.64098	9.32E-4
1365.79052	1.64054	9.27E-4
1371.78991	1.64009	9.23E-4
1377.78864	1.63964	9.18E-4
1383.78756	1.63919	9.14E-4
1389.78753	1.63874	9.1E-4
1395.78633	1.63828	9.05E-4
1401.78484	1.63783	9.01E-4
1407.78397	1.63738	8.97E-4
1413.78308	1.63692	8.92E-4
1419.78313	1.63646	8.88E-4
1425.78186	1.63601	8.84E-4
1431.78023	1.63555	8.8E-4
1437.77926	1.63509	8.76E-4
1443.77834	1.63463	8.72E-4
1449.77852	1.63417	8.68E-4
1455.7775	1.63371	8.64E-4
1461.77635	1.63325	8.6E-4
1467.77445	1.63278	8.56E-4
1473.77468	1.63232	8.53E-4
1479.77294	1.63185	8.49E-4
1485.77215	1.63138	8.45E-4
1491.77174	1.63091	8.42E-4
1497.77112	1.63044	8.38E-4
1503.7697	1.62997	8.34E-4
1509.76873	1.6295	8.31E-4
1515.76762	1.62903	8.27E-4
1521.76768	1.62856	8.24E-4
1527.76648	1.62808	8.2E-4
1533.76533	1.6276	8.17E-4
1539.76366	1.62713	8.13E-4
1545.76284	1.62665	8.1E-4
1551.76233	1.62617	8.07E-4
1557.76161	1.62569	8.03E-4
1563.76011	1.6252	8E-4
1569.75927	1.62472	7.97E-4
1575.75858	1.62423	7.94E-4
1581.7575	1.62375	7.9E-4
1587.75754	1.62326	7.87E-4
1593.75615	1.62277	7.84E-4
1599.75484	1.62228	7.81E-4
1605.7531	1.62179	7.78E-4
1611.75252	1.6213	7.75E-4
1617.7526	1.6208	7.72E-4
1623.75073	1.62031	7.69E-4
1629.75066	1.61981	7.66E-4
1635.74978	1.61931	7.63E-4
1641.74756	1.61881	7.6E-4
1647.74789	1.61831	7.57E-4
1653.74591	1.61781	7.54E-4
1659.74554	1.61731	7.52E-4
1665.7441	1.6168	7.49E-4
1671.74334	1.61629	7.46E-4
1677.74282	1.61579	7.43E-4
1683.74207	1.61528	7.4E-4
1689.74061	1.61477	7.38E-4
1695.7403	1.61425	7.35E-4
1701.73837	1.61374	7.32E-4
1707.73903	1.61322	7.3E-4
1713.73716	1.61271	7.27E-4
1719.73701	1.61219	7.25E-4
1725.73578	1.61167	7.22E-4
1731.73542	1.61115	7.19E-4
1737.73309	1.61063	7.17E-4
1743.7332	1.6101	7.14E-4
1749.73291	1.60958	7.12E-4
1755.73179	1.60905	7.09E-4
1761.72937	1.60852	7.07E-4
1767.73027	1.60799	7.05E-4
1773.72905	1.60746	7.02E-4
1779.7278	1.60693	7E-4
1785.72612	1.60639	6.97E-4
1791.72616	1.60586	6.95E-4
1797.72495	1.60532	6.93E-4
1803.72468	1.60478	6.9E-4
1809.72233	1.60424	6.88E-4
1815.72276	1.6037	6.86E-4
1821.72029	1.60315	6.84E-4
1827.71985	1.60261	6.81E-4
1833.71837	1.60206	6.79E-4
1839.71818	1.60151	6.77E-4
1845.71617	1.60096	6.75E-4
1851.71743	1.60041	6.73E-4
1857.7161	1.59986	6.7E-4
1863.71453	1.5993	6.68E-4
1869.71235	1.59874	6.66E-4
1875.71201	1.59819	6.64E-4
1881.71031	1.59763	6.62E-4
1887.70974	1.59706	6.6E-4
1893.70993	1.5965	6.58E-4
1899.70765	1.59594	6.56E-4
1905.70832	1.59537	6.54E-4
1911.70575	1.5948	6.52E-4
1917.70545	1.59423	6.5E-4
1923.70413	1.59366	6.48E-4
1929.70441	1.59309	6.46E-4
1935.70296	1.59251	6.44E-4
1941.70241	1.59194	6.42E-4
1947.70246	1.59136	6.4E-4
1953.69968	1.59078	6.38E-4
1959.69987	1.5902	6.36E-4
1965.69963	1.58961	6.34E-4
1971.69861	1.58903	6.32E-4
1977.69646	1.58844	6.31E-4
1983.696	1.58785	6.29E-4
1989.69373	1.58726	6.27E-4
1995.69572	1.58667	6.25E-4
2001.69201	1.58608	6.23E-4
2007.69193	1.58548	6.22E-4
2013.69196	1.58489	6.2E-4
2019.69175	1.58429	6.18E-4
2025.69101	1.58369	6.16E-4
2031.68938	1.58308	6.15E-4
2037.68654	1.58248	6.13E-4
2043.68553	1.58187	6.11E-4
2049.68605	1.58127	6.09E-4
2055.68442	1.58066	6.08E-4
2061.68372	1.58005	6.06E-4
2067.68366	1.57943	6.04E-4
2073.68046	1.57882	6.03E-4
2079.68075	1.5782	6.01E-4
2085.68078	1.57759	5.99E-4
2091.68025	1.57697	5.98E-4
2097.67883	1.57634	5.96E-4
2103.67623	1.57572	5.95E-4
2109.67571	1.57509	5.93E-4
2115.67701	1.57447	5.92E-4
2121.67624	1.57384	5.9E-4
2127.67308	1.57321	5.88E-4
2133.67454	1.57258	5.87E-4
2139.67303	1.57194	5.85E-4
2145.67191	1.57131	5.84E-4
2151.67092	1.57067	5.82E-4
2157.66978	1.57003	5.81E-4
2163.66819	1.56939	5.79E-4
2169.66587	1.56874	5.78E-4
2175.66636	1.5681	5.76E-4
2181.66557	1.56745	5.75E-4
2187.66322	1.5668	5.73E-4
2193.66288	1.56615	5.72E-4
2199.66432	1.5655	5.71E-4
2205.66337	1.56484	5.69E-4
2211.65973	1.56419	5.68E-4
2217.66101	1.56353	5.66E-4
2223.65905	1.56287	5.65E-4
2229.65755	1.56221	5.64E-4
2235.65625	1.56154	5.62E-4
2241.65488	1.56088	5.61E-4
2247.65727	1.56021	5.59E-4
2253.65503	1.55954	5.58E-4
2259.65192	1.55887	5.57E-4
2265.65184	1.55819	5.55E-4
2271.65041	1.55752	5.54E-4
2277.65153	1.55684	5.53E-4
2283.65079	1.55616	5.52E-4
2289.64791	1.55548	5.5E-4
2295.64686	1.5548	5.49E-4
2301.64742	1.55411	5.48E-4
2307.64506	1.55342	5.46E-4
2313.64382	1.55274	5.45E-4
2319.64347	1.55204	5.44E-4
2325.64378	1.55135	5.43E-4
2331.64451	1.55066	5.41E-4
2337.64103	1.54996	5.4E-4
2343.6419	1.54926	5.39E-4
2349.63802	1.54856	5.38E-4
2355.63806	1.54786	5.36E-4
2361.63732	1.54715	5.35E-4
2367.63557	1.54645	5.34E-4
2373.6371	1.54574	5.33E-4
2379.63716	1.54503	5.32E-4
2385.6355	1.54432	5.31E-4
2391.63186	1.5436	5.29E-4
2397.63062	1.54289	5.28E-4
2403.63159	1.54217	5.27E-4
2409.62989	1.54145	5.26E-4
2415.62996	1.54072	5.25E-4
2421.62688	1.54	5.24E-4
2427.62988	1.53927	5.23E-4
2433.62927	1.53854	5.21E-4
2439.62479	1.53781	5.2E-4
2445.6258	1.53708	5.19E-4
2451.62247	1.53635	5.18E-4
2457.62426	1.53561	5.17E-4
2463.62124	1.53487	5.16E-4
2469.62297	1.53413	5.15E-4
2475.6194	1.53339	5.14E-4
2481.62019	1.53264	5.13E-4
2487.62019	1.5319	5.12E-4
2493.61918	1.53115	5.11E-4
2499.61694	1.5304	5.1E-4